Integration time [ms]: 17970.000
Averaging Nr. [scans]: 1
Smoothing Nr. [pixels]: 1
Data measured with spectrometer [name]: 1808445U1
Wave   ;Sample   ;Dark     ;Reference;Scope Corrected for Dark
[nm]   ;[counts] ;[counts] ;[counts] 

 176.58; 2140.001; 2108.999; 2256.000;31.00136
 176.92; 1171.804; 1316.860; 1344.351;-145.05529
 177.26;  170.494;  362.503;  337.354;-192.00935
 177.60;  292.388;  471.278;  484.340;-178.89042
 177.95; -760.692; -678.975; -719.337;-81.71703
 178.29; -376.317; -240.349; -265.665;-135.96801
 178.63;  936.388; 1030.611;  979.340;-94.22307
 178.97;  662.040;  802.626;  820.672;-140.58533
 179.31;  408.388;  511.611;  433.340;-103.22375
 179.66;-1262.636;-1130.698;-1150.329;-131.93772
 180.00;-1582.014;-1378.652;-1587.002;-203.36226
 180.34; -944.292; -793.042; -831.661;-151.24927
 180.68;  743.752;  944.246;  857.678;-200.49345
 181.02; 1648.396; 1768.269; 1887.675;-119.87272
 181.37; 3456.037; 3642.962; 3625.005;-186.92445
 181.71; 3660.049; 3694.950; 3698.673;-34.90063
 182.05; 3492.742; 3543.590; 3525.343;-50.84856
 182.39; 1407.045; 1389.621; 1444.339;17.42454
 182.73; -518.325; -337.675; -437.332;-180.65067
 183.08;  687.037;  750.962;  668.338;-63.92479
 183.42; 2799.442; 2836.889; 2666.347;-37.44648
 183.76; 3598.130; 3542.534; 3570.350;55.59640
 184.10; 2613.714; 2635.618; 2583.673;-21.90369
 184.44;  354.615;  334.720;  369.660;19.89518
 184.78; 2001.658; 1999.676; 1890.332; 1.98162
 185.13; 1910.771; 1921.227; 1865.347;-10.45669
 185.47; 1486.472; 1597.525; 1509.684;-111.05257
 185.81;  721.155;  827.842;  861.353;-106.68759
 186.15;  518.825;  682.839;  676.354;-164.01343
 186.49;  581.799;  759.198;  801.017;-177.39884
 186.84;-1508.575;-1388.427;-1362.322;-120.14752
 187.18;  -67.924;  -79.744;  -49.324;11.82015
 187.52; -460.590; -542.412; -544.324;81.82185
 187.86; 1053.716; 1010.949; 1007.340;42.76706
 188.20;-1074.953; -998.715;-1019.327;-76.23804
 188.54; 6724.732; 6990.600; 6909.675;-265.86762
 188.89; 7866.412; 8086.253; 7900.010;-219.84175
 189.23; 7715.420; 7848.912; 7780.011;-133.49276
 189.57;  491.728;  485.604;  382.341; 6.12422
 189.91;  700.062;  812.937;  762.341;-112.87476
 190.25; 2811.145; 2985.519; 2674.685;-174.37433
 190.59; 3368.830; 3513.501; 3290.021;-144.67125
 190.94; 1943.778; 2034.887; 1868.681;-91.10906
 191.28; 1391.482; 1525.849; 1556.019;-134.36651
 191.62;  794.848;  950.148;  956.023;-155.29980
 191.96; 1254.467; 1301.198; 1342.350;-46.73081
 192.30;  106.427;  137.238;   91.345;-30.81180
 192.64; 1670.759; 1694.572; 1716.678;-23.81283
 192.99;  542.456;  612.542;  627.349;-70.08592
 193.33;  237.797;  253.200;  351.350;-15.40326
 193.67; 2399.412; 2387.253; 2340.343;12.15961
 194.01; 3644.360; 3663.973; 3593.003;-19.61358
 194.35; 3670.345; 3721.321; 3567.002;-50.97550
 194.69;  299.643;  340.358;  293.330;-40.71533
 195.04;   -9.691;   22.025; -100.003;-31.71601
 195.38; 1410.025; 1418.974; 1310.003;-8.94929
 195.72; 4421.076; 4509.256; 4406.010;-88.17985
 196.06; 3423.167; 3651.830; 3618.355;-228.66275
 196.40; 1964.840; 2101.490; 2151.355;-136.64947
 196.74;  350.796;  525.202;  460.350;-174.40564
 197.09; 4157.850; 4128.480; 4045.357;29.36958
 197.43; 5384.871; 5455.459; 5400.026;-70.58788
 197.77; 5503.797; 5805.534; 5775.350;-301.73659
 198.11; 2756.098; 3150.234; 3173.346;-394.13561
 198.45; 3281.153; 3690.844; 3733.686;-409.69065
 198.79; 2415.524; 2438.472; 2622.358;-22.94843
 199.13;  720.136;  766.862;  880.684;-46.72570
 199.48;  578.425;  657.906;  684.678;-79.48085
 199.82;  220.419;  405.579;  354.011;-185.16011
 200.16; 1994.398; 2081.267; 2100.342;-86.86932
 200.50;  508.706;  490.960;  497.005;17.74562
 200.84;  870.352;  763.648;  815.669;106.70444
 201.18; 3479.402; 3450.930; 3433.009;28.47116
 201.52; 6130.464; 6124.200; 6197.350; 6.26443
 201.87; 4713.464; 4771.533; 4841.017;-58.06925
 202.21; 1909.450; 1941.214; 2050.682;-31.76382
 202.55; -807.909; -785.093; -756.322;-22.81657
 202.89; -151.900; -156.768; -127.321; 4.86779
 203.23; -465.211; -472.791; -419.318; 7.58040
 203.57;   11.088;   44.910;  122.011;-33.82167
 203.91; -357.918; -271.084; -258.656;-86.83427
 204.26; -557.907; -397.095; -427.988;-160.81146
 204.60; -199.246;  -63.089;  -70.322;-136.15671
 204.94;  251.783;  390.882;  457.015;-139.09885
 205.28; 2813.123; 2905.874; 2901.016;-92.75123
 205.62; 3841.431; 3989.901; 3947.679;-148.47030
 205.96; 6941.780; 7092.218; 6929.014;-150.43729
 206.30; 6714.819; 6789.845; 6636.686;-75.02535
 206.65; 5061.482; 5089.515; 4900.686;-28.03351
 206.99; 3332.465; 3307.866; 3221.350;24.59844
 207.33;  125.099;  161.899;   90.346;-36.80057
 207.67; 1659.378; 1636.621; 1621.339;22.75719
 208.01;  212.378;  214.621;  133.006;-2.24349
 208.35; 1301.766; 1258.899; 1263.346;42.86745
 208.69;  969.159;  981.838;  934.687;-12.67908
 209.03; 2667.508; 2574.155; 2629.356;93.35291
 209.38; 1511.164; 1430.167; 1423.354;80.99712
 209.72; 1305.111; 1249.887; 1263.348;55.22495
 210.06;-1455.640;-1425.693;-1504.330;-29.94691
 210.40;  -49.667;   51.334;  -64.000;-101.00034
 210.74; -173.297;  -71.704; -235.329;-101.59248
 211.08; 1283.438; 1336.893; 1310.013;-53.45465
 211.42; -390.550; -376.785; -373.985;-13.76518
 211.76; -358.932; -342.736; -270.325;-16.19516
 212.10; -554.935; -387.066; -484.325;-167.86830
 212.45; 1260.091; 1369.574; 1303.345;-109.48221
 212.79; 1661.792; 1647.206; 1587.683;14.58619
 213.13; 1392.460; 1285.204; 1273.016;107.25660
 213.47;  721.419;  746.246;  710.011;-24.82678
 213.81;  459.416;  574.916;  566.011;-115.49923
 214.15; 2526.803; 2657.195; 2682.351;-130.39237
 214.49; 4097.836; 4095.160; 4224.022; 2.67603
 214.83; 5834.458; 5860.873; 5935.683;-26.41449
 215.17; 3813.067; 3849.265; 3890.342;-36.19755
 215.52; 3822.701; 3967.632; 3889.004;-144.93160
 215.86; 1476.332; 1616.001; 1640.000;-139.66871
 216.20; 3501.665; 3547.668; 3614.666;-46.00306
 216.54; 2183.393; 2165.273; 2354.674;18.12013
 216.88; 2050.141; 2044.190; 2090.685; 5.95083
 217.22; 1609.843; 1708.154; 1708.356;-98.31138
 217.56; 1961.146; 2092.852; 1921.019;-131.70631
 217.90; 1682.400; 1817.932; 1708.342;-135.53122
 218.24;  835.042;  951.958;  898.672;-116.91594
 218.59; 3165.417; 3233.581; 3318.677;-68.16351
 218.93; 5919.087; 5856.912; 5984.678;62.17458
 219.27; 5258.746; 5099.919; 5269.343;158.82662
 219.61; 2566.403; 2456.929; 2569.009;109.47354
 219.95; 1407.061; 1394.604; 1415.674;12.45721
 220.29; 1915.411; 1938.255; 1929.343;-22.84379
 220.63; 3236.423; 3145.242; 3153.678;91.18071
 220.97; 1344.780; 1289.551; 1286.681;55.22835
 221.31; 1515.474; 1521.857; 1448.685;-6.38250
 221.65; -663.516; -617.821; -695.314;-45.69508
 221.99; -593.208; -578.127; -591.651;-15.08082
 222.34;-1750.216;-1697.786;-1788.985;-52.43083
 222.68;-1512.539;-1348.463;-1438.984;-164.07571
 223.02;-1040.910; -927.425;-1109.655;-113.48426
 223.36; -436.919; -360.083; -519.323;-76.83631
 223.70;  612.755;  614.577;  449.011;-1.82167
 224.04; 3889.071; 3902.594; 3727.342;-13.52305
 224.38; 5203.786; 5207.212; 5134.682;-3.42674
 224.72; 4559.823; 4530.174; 4488.687;29.64881
 225.06; 1355.807; 1406.523; 1383.018;-50.71618
 225.40; -403.194; -352.142; -345.982;-51.05189
 225.74;  -23.198;  165.862;  137.017;-189.06074
 226.09; 1841.471; 2035.526; 2048.018;-194.05495
 226.43; 1760.135; 1927.196; 1851.017;-167.06142
 226.77; 1246.780; 1335.551; 1231.681;-88.77165
 227.11; 1115.800; 1110.198; 1027.017; 5.60252
 227.45; 1901.158; 1895.839; 1803.353; 5.31956
 227.79; 2468.153; 2414.511; 2370.020;53.64268
 228.13;  771.142;  799.855;  797.685;-28.71243
 228.47;  768.431;  848.567;  897.679;-80.13629
 228.81; 1047.115; 1160.550; 1193.015;-113.43525
 229.15;  760.131;  793.200;  791.683;-33.06891
 229.49; 2115.740; 2207.925; 1876.009;-92.18530
 229.83; 2259.746; 2344.586; 1999.677;-84.83937
 230.17; 3756.793; 3917.538; 3604.016;-160.74510
 230.51; 1525.819; 1643.511; 1648.019;-117.69167
 230.86; 1499.826; 1698.505; 1695.354;-198.67874
 231.20; 1532.808; 1622.523; 1618.685;-89.71447
 231.54; 1385.776; 1438.889; 1513.347;-53.11281
 231.88;   43.411;   34.921;  120.677; 8.49056
 232.22;  382.732;  423.933;  548.675;-41.20095
 232.56; 1143.430; 1242.235; 1324.346;-98.80534
 232.90; 1826.141; 1901.523; 1991.018;-75.38284
 233.24;  573.158;  634.506;  664.353;-61.34745
 233.58;  180.119;  237.879;  256.015;-57.76042
 233.92;  926.066; 1043.600; 1027.675;-117.53394
 234.26; 2276.372; 2415.294; 2320.338;-138.92173
 234.60; 2746.360; 2862.972; 2657.003;-116.61188
 234.94; 2492.720; 2580.279; 2437.340;-87.55845
 235.28;  890.726; 1017.273;  918.341;-126.54756
 235.62;  310.406;  403.927;  441.009;-93.52101
 235.96;  226.824;  304.173;  291.687;-77.34949
 236.31;  976.205; 1074.791; 1086.693;-98.58583
 236.65; 1328.506; 1435.491; 1370.689;-106.98417
 236.99;  -66.869;  -39.800;   32.017;-27.06857
 237.33;-1669.221;-1681.781;-1655.986;12.55998
 237.67;-1299.570;-1264.765;-1223.321;-34.80466
 238.01; -171.954;  -57.381; -195.994;-114.57308
 238.35; -270.313; -183.688; -288.664;-86.62515
 238.69; -669.254; -592.081; -726.657;-77.17270
 239.03; -958.211; -858.458; -920.318;-99.75225
 239.37;  715.759;  857.906;  825.345;-142.14752
 239.71;  863.732;  969.600; 1017.675;-105.86796
 240.05; 2145.754; 2233.577; 2299.011;-87.82303
 240.39; 1971.781; 2000.884; 2052.681;-29.10260
 240.73; 1372.443; 1441.555; 1417.014;-69.11179
 241.07;  167.088;  225.244;  226.678;-58.15569
 241.41;  960.094; 1058.238;  958.679;-98.14412
 241.75; 1653.094; 1654.904; 1627.012;-1.80942
 242.09;  920.390;  951.942;  861.007;-31.55198
 242.43; -917.589; -893.746; -839.323;-23.84277
 242.77;  283.777;  361.554;  428.681;-77.77675
 243.11;  729.093;  781.239;  853.012;-52.14650
 243.45; 1761.455; 1792.876; 1795.015;-31.42096
 243.80;  967.163;  908.501;  893.354;58.66242
 244.14; 1130.130; 1062.535; 1068.350;67.59470
 244.48; 1019.421;  998.244; 1016.011;21.17628
 244.82; 2254.112; 2268.219; 2382.681;-14.10702
 245.16; 1930.498; 1992.499; 2111.021;-62.00050
 245.50; 2313.815; 2347.182; 2538.686;-33.36753
 245.84;  692.767;  800.231;  861.679;-107.46452
 246.18; 1650.446; 1754.219; 1748.681;-103.77267
 246.52; 2216.818; 2220.513; 2126.686;-3.69542
 246.86; 1748.127; 1737.204; 1627.350;10.92327
 247.20; 2332.763; 2267.235; 2132.679;65.52868
 247.54;  931.460;  944.205;  845.349;-12.74476
 247.88; 1280.450; 1259.881; 1273.682;20.56951
 248.22;  620.094;  619.571;  684.012; 0.52289
 248.56; 1129.747; 1117.252; 1246.677;12.49532
 248.90; 1189.738; 1166.928; 1166.676;22.81028
 249.24; 1396.444; 1396.220; 1405.681; 0.22427
 249.58;  306.819;  335.512;  241.686;-28.69337
 249.92; 1535.479; 1558.852; 1553.019;-23.37263
 250.26;  747.418;  761.580;  741.011;-14.16249
 250.60; 1199.707; 1175.626; 1187.672;24.08100
 250.94; -412.294; -367.707; -496.995;-44.58635
 251.28; -370.289; -272.045; -341.661;-98.24383
 251.62; 2127.760; 2234.905; 2131.345;-107.14514
 251.96; 2386.493; 2479.504; 2444.020;-93.01071
 252.30; 3274.518; 3262.478; 3186.690;12.03965
 252.64; 1881.526; 1884.804; 1835.024;-3.27870
 252.98;  858.478;  844.520;  817.352;13.95832
 253.32;  -33.575;   28.906;  -63.322;-62.48119
 253.66; -168.546;  -88.123; -171.651;-80.42300
 254.00; 1195.484; 1226.180; 1215.686;-30.69644
 254.34; 1986.117; 1972.548; 1997.682;13.56951
 254.68;  822.722;  839.277;  846.340;-16.55572
 255.02; 1089.370; 1145.296; 1020.005;-55.92683
 255.36;  406.062;  550.270;  427.341;-144.20878
 255.70; 1339.471; 1443.193; 1292.684;-103.72196
 256.04;  752.177;  879.153;  805.022;-126.97668
 256.38; -177.909;  -79.426; -104.988;-98.48221
 256.72; -571.294; -487.707; -441.328;-83.58703
 257.06; -402.954; -312.714; -363.661;-90.24043
 257.40; 1933.382; 1988.951; 1852.673;-55.56934
 257.74;  803.102;  896.896;  650.680;-93.79343
 258.08; 1120.157; 1608.840; 1457.020;-488.68316
 258.42;  655.790; 1147.541; 1048.016;-491.75089
 258.76; 1269.413; 1736.585; 1783.010;-467.17236
 259.10; 1216.766; 1226.232; 1303.013;-9.46554
 259.44;    1.788;  -12.457;  104.015;14.24571
 259.78; 1481.456; 1480.875; 1479.682; 0.58142
 260.12;  300.774;  327.558;  319.347;-26.78390
 260.46;  436.091;  487.241;  410.678;-51.15058
 260.80; -300.255; -234.747; -248.990;-65.50774
 261.14;   -3.967;   37.300;  -13.996;-41.26663
 261.48;   32.040;   43.292;   58.005;-11.25200
 261.82; -243.583; -270.085; -326.989;26.50179
 262.16;  733.726;  766.273;  718.341;-32.54756
 262.50;  908.737; 1004.595;  849.676;-95.85809
 262.84;  667.820;  818.510;  745.353;-150.69031
 263.18; 2850.200; 2967.463; 2833.025;-117.26271
 263.52; 2513.193; 2588.137; 2544.025;-74.94367
 263.86; 3232.128; 3268.536; 3265.683;-36.40734
 264.20; -588.295; -513.373; -425.662;-74.92207
 264.54;  382.372;  416.960;  519.338;-34.58805
 264.88; 2450.449; 2464.549; 2495.348;-14.09919
 265.22; 3658.498; 3616.165; 3557.354;42.33317
 265.56; 4051.495; 3983.169; 3953.021;68.32534
 265.90; 1242.483; 1211.515; 1207.352;30.96819
 266.24;  637.472;  637.859;  703.351;-0.38624
 266.58; -364.530; -267.139; -303.983;-97.39169
 266.92; 1058.461; 1148.870; 1091.683;-90.40871
 267.26; 1162.752; 1307.913; 1237.344;-145.16045
 267.60;  711.747;  764.919;  812.677;-53.17202
 267.94; -721.559; -562.110; -585.986;-159.44920
 268.28; -463.887; -377.448; -378.319;-86.43865
 268.62;  456.090;  642.575;  546.011;-186.48460
 268.96; 2260.416; 2328.916; 2338.344;-68.49923
 269.30; 2828.814; 2933.517; 2880.685;-104.70256
 269.64; 1286.189; 1370.474; 1299.357;-84.28483
 269.98; -183.220;  -63.115; -222.319;-120.10532
 270.32;  309.038;  454.961;  360.005;-145.92343
 270.65;  841.716; 1006.949;  887.340;-165.23294
 270.99;  -17.944;  132.610;  137.340;-150.55436
 271.33;-2415.619;-2319.049;-2314.327;-96.57002
 271.67;-1327.279;-1231.389;-1125.660;-95.88974
 272.01; -321.925; -255.077; -257.324;-66.84822
 272.35;  846.749;  960.916;  948.677;-114.16726
 272.69; 1143.419; 1221.913; 1063.678;-78.49447
 273.03;  628.112;  743.219;  680.014;-115.10634
 273.37;  179.416;  228.583;  140.010;-49.16726
 273.71; -425.925; -348.076; -355.657;-77.84856
 274.05;  -63.875;   -7.460; -117.651;-56.41483
 274.39;  460.447;  530.217;  458.681;-69.76995
 274.73; -477.215; -411.121; -464.652;-66.09375
 275.07; 1380.792; 1442.206; 1477.683;-61.41415
 275.41; 1029.455; 1112.543; 1121.682;-83.08796
 275.75; 3872.517; 3898.813; 3906.690;-26.29504
 276.09; 3102.488; 3129.176; 3113.353;-26.68861
 276.43; 4968.406; 5040.593; 5004.676;-72.18734
 276.77; 1952.109; 2020.556; 2017.681;-68.44682
 277.11; 3073.148; 2101.516; 2951.019;971.63247
 277.45; 1541.105;  494.226; 1415.347;1046.87902
 277.79; 3180.059; 2094.273; 3023.674;1085.78612
 278.12; 1933.059; 1855.940; 1955.341;77.11877
 278.46; 2691.750; 2623.916; 2673.344;67.83410
 278.80; 1617.419; 1642.246; 1680.344;-24.82746
 279.14; -129.920;   -6.748;  -23.990;-123.17168
 279.48; -639.882; -495.454; -525.318;-144.42844
 279.82; -251.848; -101.155; -133.981;-150.69235
 280.16; 3101.500; 3118.164; 3133.355;-16.66377
 280.50; 4333.848; 4437.815; 4488.356;-103.96681
 280.84; 4031.481; 4079.183; 4158.685;-47.70188
 281.18; 3187.776; 3282.889; 3393.681;-95.11247
 281.52; 1610.798; 1622.200; 1721.683;-11.40224
 281.86; 1175.506; 1208.491; 1285.689;-32.98553
 282.20;-1228.494;-1114.843;-1150.978;-113.65117
 282.54; -155.541;  -59.461; -112.984;-96.07946
 282.88;  499.103;  620.562;  521.013;-121.45941
 283.22; 1778.772; 1894.226; 1834.347;-115.45431
 283.55; 1392.458; 1535.873; 1436.349;-143.41517
 283.89; 3393.472; 3510.193; 3526.018;-116.72094
 284.23; 2208.446; 2204.552; 2552.348; 3.89332
 284.57; 1762.455; 1734.542; 2096.016;27.91306
 284.91;  490.164; -149.500;  698.688;639.66446
 285.25; 1771.156; 1139.842; 1731.686;631.31411
 285.59;  714.764;  139.900;  696.346;574.86405
 285.93; 2025.082; 2064.583; 2078.344;-39.50127
 286.27; 2719.453; 2890.878; 2820.682;-171.42504
 286.61; 3285.433; 3427.565; 3398.346;-142.13187
 286.95; 2497.053; 2676.279; 2491.340;-179.22579
 287.29; 1818.418; 1978.247; 1841.344;-159.82950
 287.63; 1166.121; 1269.211; 1188.015;-103.09001
 287.96; -392.532; -400.471; -271.983; 7.93858
 288.30;  512.815;  483.183;  544.019;29.63213
 288.64; 2181.444; 2168.221; 2178.014;13.22291
 288.98; 1178.405; 1187.261; 1128.009;-8.85571
 289.32; -297.585; -671.750; -630.656;374.16539
 289.66;   27.761; -324.762; -302.655;352.52323
 290.00;  756.752;  412.580;  448.344;344.17254
 290.34;13353.779;13331.552;13177.348;22.22767
 290.68;12655.836;12607.161;12505.688;48.67467
 291.02;14116.178;14145.486;13975.356;-29.30763
 291.36; 2012.159; 2089.838; 2072.687;-77.67840
 291.69;  888.467; 1037.864; 1018.017;-149.39782
 292.03;  839.080;  940.918;  944.010;-101.83835
 292.37; -449.257; -374.078; -410.657;-75.17917
 292.71;  219.778;  244.220;  216.348;-24.44104
 293.05; -255.614; -215.054; -255.660;-40.55981
 293.39;  421.975;  480.359;  393.997;-58.38472
 293.73;  497.692;  635.974;  453.670;-138.28263
 294.07;  259.089;  372.576;  242.345;-113.48698
 294.41; 1101.431; 1157.901; 1071.679;-56.46996
 294.75; 1996.774; 1913.558; 1991.680;83.21610
 295.08; 1276.759; 1244.573; 1229.678;32.18615
 295.42; -340.650; -303.017; -294.331;-37.63229
 295.76;-1587.022;-1560.645;-1617.336;-26.37723
 296.10; -967.616; -976.718; -948.994; 9.10141
 296.44;  223.078;  155.253;  276.010;67.82491
 296.78; 2309.467; 2337.197; 2462.350;-27.73047
 297.12; 2271.875; 2338.454; 2375.360;-66.57903
 297.46; 2020.107; 2161.557; 2146.014;-141.44988
 297.80;  384.681;  501.652;  373.335;-116.97039
 298.14;  597.028;  750.971;  764.670;-153.94317
 298.47; -114.602;   26.600;   12.342;-141.20197
 298.81; 2049.437; 2188.561; 2311.013;-139.12438
 299.15; 1402.719; 1450.280; 1480.340;-47.56015
 299.49; 1187.988; 1210.346; 1258.998;-22.35784
 299.83; -882.657; -916.343; -887.332;33.68641
 300.17; 1487.731; 1562.602; 1520.675;-74.87102
 300.51; 2180.747; 2327.584; 2177.677;-146.83699
 300.85; 3953.732; 4191.933; 3923.675;-238.20129
 301.18;  982.729; 1109.936;  906.675;-127.20674
 301.52; 1519.006; 1581.994; 1513.667;-62.98775
 301.86; -453.992; -469.342; -440.999;15.35001
 302.20;  228.765;  181.900;  266.346;46.86541
 302.54;  382.448;  321.550;  332.015;60.89774
 302.88;  421.780;  416.551;  465.014; 5.22835
 303.22;  722.446;  689.219;  765.681;33.22733
 303.56;    0.064;   -9.731;   84.341; 9.79497
 303.90;  273.711;  251.288;  363.672;22.42250
 304.23; 1285.421; 1342.911; 1406.678;-57.49072
 304.57;  766.756;  744.243;  872.345;22.51268
 304.91;  905.415;  894.584;  960.344;10.83070
 305.25; 1186.762; 1211.236; 1268.345;-24.47439
 305.59; 3309.061; 3425.938; 3383.674;-116.87612
 305.93; 4019.400; 4129.932; 3991.675;-110.53156
 306.27; 2918.443; 2937.222; 2869.347;-18.77845
 306.60; 2805.123; 2784.875; 2722.349;20.24775
 306.94;  962.426;  998.573; 1033.678;-36.14684
 307.28;  796.042;  875.290;  829.672;-79.24757
 307.62; -861.930; -761.405; -789.324;-100.52441
 307.96; -282.572; -253.096; -327.321;-29.47575
 308.30; -636.636; -566.698; -585.996;-69.93874
 308.64; -293.005; -283.662; -254.667;-9.34320
 308.97; -561.307; -793.360; -698.997;232.05343
 309.31; -578.261; -764.407; -717.991;186.14532
 309.65; -876.267;-1040.401; -997.325;164.13340
 309.99; -837.952; -795.383; -824.327;-42.56900
 310.33; -853.228; -919.773; -892.320;66.54501
 310.67;-1212.234;-1191.768;-1251.987;-20.46588
 311.01; 1198.727; 1271.606; 1266.008;-72.87885
 311.34;  452.740;  580.925;  526.009;-128.18530
 311.68;  800.749;  855.249;  886.677;-54.49957
 312.02;-1117.926;-1182.409;-1133.991;64.48307
 312.36; -546.598; -645.737; -572.325;99.13885
 312.70; -334.555; -410.780; -390.319;76.22461
 313.04;-1196.567;-1181.434;-1140.321;-15.13289
 313.38;-1587.277;-1546.391;-1555.993;-40.88531
 313.71;-1999.904;-1921.098;-1925.988;-78.80670
 314.05; -389.217; -320.119; -395.318;-69.09783
 314.39;  287.427;  310.238;  299.679;-22.81044
 314.73;  468.444;  439.554;  445.014;28.89026
 315.07;   -7.231;   40.562;   54.680;-47.79309
 315.41;  775.046;  873.287;  807.006;-98.24111
 315.74; 1184.364; 1277.636; 1212.004;-93.27208
 316.08;  469.049;  453.950;  456.006;15.09903
 316.42; 1934.388; 1871.278; 1989.340;63.10958
 316.76; 2221.066; 2174.599; 2195.342;46.46708
 317.10; 3671.765; 3653.566; 3660.346;18.19909
 317.44;   87.415;  127.584;   -3.990;-40.16930
 317.77; -453.269; -351.732; -355.992;-101.53633
 318.11;-1665.242;-1497.093;-1572.655;-168.14820
 318.45;   82.472;  213.192;  232.684;-130.71992
 318.79; -365.160; -257.177; -276.311;-107.98315
 319.13; -626.563; -564.106; -542.987;-62.45737
 319.47;-1511.307;-1424.360;-1477.330;-86.94691
 319.80; 1943.030; 2044.303; 2002.004;-101.27310
 320.14; 1963.391; 2076.275; 2043.674;-112.88395
 320.48; 3347.711; 3463.955; 3470.006;-116.24383
 320.82;  146.049;  310.950;  244.340;-164.90165
 321.16;  390.443;  581.888;  552.014;-191.44546
 321.50; -605.881; -431.788; -441.652;-174.09341
 321.83; -744.174; -601.162; -563.980;-143.01139
 322.17; -506.124; -414.546; -412.307;-91.57767
 322.51; 1965.175; 2119.489; 2051.689;-154.31410
 322.85; 1047.793; 1124.538; 1076.683;-76.74544
 323.19; 1231.111; 1336.887; 1294.014;-105.77573
 323.53;  203.827;  287.503;  237.354;-83.67568
 323.86;  946.504; 1097.493; 1055.355;-150.98859
 324.20;  592.102;  817.896;  703.346;-225.79343
 324.54;-1022.259; -770.742; -784.657;-251.51693
 324.88;   -2.212;  207.210;  214.015;-209.42232
 325.22; -275.179;  -92.824;  -48.314;-182.35562
 325.55;  494.488;  594.176;  631.686;-99.68725
 325.89; -146.520; -102.149;  -79.648;-44.37161
 326.23; 2223.457; 2218.207; 2293.682; 5.24979
 326.57; 1925.805; 1929.859; 1990.018;-4.05325
 326.91; 1431.831; 1502.499; 1494.021;-70.66819
 327.24; -207.162; -132.508; -231.312;-74.65424
 327.58; -616.486; -512.184; -661.977;-104.30117
 327.92; -653.815; -500.855; -602.310;-152.96069
 328.26;-1234.161; -997.176;-1034.978;-236.98485
 328.60; -311.228; -113.441;  -33.987;-197.78730
 328.94;  729.042;  949.957;  951.005;-220.91424
 329.27;  900.773; 1034.891; 1057.347;-134.11791
 329.61;  708.196;  843.133;  737.025;-134.93686
 329.95;  859.468;  917.529;  979.684;-58.06142
 330.29;  856.699;  957.967;  956.004;-101.26731
 330.63;  372.429;  551.569;  585.346;-179.13935
 330.96;  770.210;  897.453;  781.027;-127.24297
 331.30;  679.203;  781.793;  710.359;-102.58992
 331.64;  147.793;  186.538;  136.016;-38.74476
 331.98;  273.101;  337.897;  327.013;-64.79615
 332.31;-1001.190; -919.479; -974.648;-81.71039
 332.65; -658.181; -551.155; -592.647;-107.02535
 332.99; -870.574; -677.428; -760.322;-193.14582
 333.33; 3386.741; 3521.591; 3517.343;-134.84924
 333.67; 4842.162; 4940.502; 4874.687;-98.33996
 334.00; 5069.874; 5148.455; 5214.026;-78.58141
 334.34; 1947.149; 2114.848; 2072.352;-167.69916
 334.68; 1043.096; 1257.569; 1216.012;-214.47269
 335.02; 1099.769; 1257.563; 1126.680;-157.79411
 335.36; 1038.793; 1145.538; 1126.016;-106.74408
 335.69; 1246.456; 1408.875; 1328.349;-162.41823
 336.03;  546.514;  712.816;  654.356;-166.30287
 336.37;  399.235;  566.095;  427.363;-166.85995
 336.71; 1718.167; 1806.830; 1822.021;-88.66275
 337.04; 2204.782; 2228.216; 2284.348;-23.43321
 337.38; 3300.127; 3374.538; 3445.016;-74.41109
 337.72; 1169.499; 1263.832; 1298.688;-94.33282
 338.06; -168.475;    8.472;   -4.642;-176.94707
 338.40; -814.508; -675.161; -689.313;-139.34745
 338.73;  266.829;  406.835;  370.687;-140.00629
 339.07;  409.562;  512.434;  430.696;-102.87254
 339.41; 2323.566; 2420.429; 2329.030;-96.86301
 339.75; 2075.889; 2198.107; 2023.028;-122.21813
 340.08; 2313.939; 2471.722; 2299.035;-157.78304
 340.42;   -3.381;  180.709;  -57.297;-184.08949
 340.76; -356.083; -216.254; -362.968;-139.82898
 341.10; 1082.561; 1151.101; 1064.696;-68.53955
 341.44; 2164.276; 2121.386; 2228.702;42.89043
 341.77; 1111.329; 1047.999; 1181.042;63.32995
 342.11; 1788.966; 1727.695; 1835.705;61.27175
 342.45;  948.285;  987.709;  922.036;-39.42384
 342.79; 2172.987; 2250.007; 2185.374;-77.02006
 343.12; -923.007; -841.332; -876.292;-81.67448
 343.46; 1067.986; 1010.675; 1094.707;57.31123
 343.80;  533.975;  480.019;  528.706;53.95645
 344.14; 1090.916; 1100.080; 1138.032;-9.16402
 344.47; 3081.939; 3162.723; 3140.035;-80.78440
 344.81; 5332.381; 5358.279; 5453.382;-25.89823
 345.15; 6259.744; 6213.581; 6290.052;46.16303
 345.49; 1496.019; 1519.641; 1592.711;-23.62241
 345.82; -942.397; -940.275; -932.299;-2.12182
 346.16; -997.442; -986.229; -933.638;-11.21336
 346.50;  110.202;  128.794;  204.692;-18.59196
 346.84;  779.201;  799.796;  884.692;-20.59502
 347.17; 1030.539; 1046.791; 1116.359;-16.25182
 347.51; 2657.543; 2663.453; 2765.360;-5.90964
 347.85; 1963.862; 1933.801; 1993.025;30.06075
 348.19;  807.119;  881.212;  911.682;-74.09239
 348.52; -734.557; -714.445; -714.319;-20.11145
 348.86;  669.524;  790.139;  770.358;-120.61442
 349.20;  451.571;  483.092;  460.030;-31.52117
 349.54;   37.539;  100.124;   42.693;-62.58447
 349.87; -785.163; -718.840; -784.645;-66.32295
 350.21;  -23.805;   -2.532;  -18.642;-21.27292
 350.55;    9.562;   19.101;   20.029;-9.53853
 350.89; -238.416; -208.922; -168.301;-29.49463
 351.22;  211.282;  237.379;  262.703;-26.09663
 351.56;    5.307;   38.021;  144.706;-32.71361
 351.90;  160.976;  219.351;  264.039;-58.37484
 352.24; -131.700;   20.361;   33.705;-152.06056
 352.57; -192.443;  -52.227; -146.638;-140.21575
 352.91; -518.844; -446.159; -490.314;-72.68555
 353.25; 1802.863; 1844.800; 1717.692;-41.93618
 353.58; 1243.553; 1262.110; 1240.695;-18.55691
 353.92; 2122.543; 2165.786; 2109.360;-43.24331
 354.26;   78.258;  118.737;  275.366;-40.47897
 354.60;  898.298;  967.696; 1046.705;-69.39798
 354.93; -302.066; -251.939; -130.299;-50.12624
 355.27; -877.098; -825.240; -818.303;-51.85757
 355.61; -998.786; -914.218; -904.973;-84.56746
 355.95;  672.169;  784.828;  773.688;-112.65866
 356.28; 1313.521; 1456.476; 1445.691;-142.95456
 356.62; 2136.586; 2188.076; 2229.032;-51.48986
 356.96; 1306.564; 1352.098; 1388.029;-45.53411
 357.29;  706.864;  741.132;  727.025;-34.26747
 357.63;  932.632; 1047.695;  986.371;-115.06294
 357.97;  136.394;  247.599;  146.717;-111.20468
 358.31; 2342.684; 2384.643; 2420.045;-41.95915
 358.64; 1555.956; 1598.039; 1608.703;-42.08268
 358.98; 1613.566; 1608.430; 1654.363; 5.13665
 359.32; -721.151; -726.185; -702.310; 5.03421
 359.65;  466.841;  503.822;  546.022;-36.98076
 359.99;  751.185;  819.812;  850.024;-68.62701
 360.33;  521.522;  619.141;  623.357;-97.61850
 360.67;-1007.793; -988.877;-1059.307;-18.91610
 361.00;  805.273;  779.722;  836.368;25.55029
 361.34; 1475.615; 1458.714; 1469.036;16.90098
 361.68; 1341.864; 1337.466; 1437.358; 4.39749
 362.01;  253.499;  285.165;  234.021;-31.66615
 362.35; 1170.555; 1262.441; 1172.028;-91.88548
 362.69;  922.251;  998.745;  866.365;-76.49395
 363.03;  668.894;  778.769;  710.696;-109.87527
 363.36;-1122.744;-1121.927;-1080.634;-0.81639
 363.70; -826.036; -841.636; -744.962;15.60066
 364.04; -808.373; -897.632; -790.629;89.25950
 364.37;  133.648;   48.680;   99.373;84.96837
 364.71;  868.308;  797.353;  835.373;70.95543
 365.05;  949.888;  941.774; 1007.028; 8.11418
 365.38;  763.196;  787.133;  837.358;-23.93720
 365.72;  520.253;  527.742;  636.699;-7.48952
 366.06; -327.761; -444.243; -408.303;116.48189
 366.40; 1345.249; 1250.747; 1413.365;94.50163
 366.73; 1985.980;  821.014;  913.040;1164.96598
 367.07; 2820.259; 1728.403; 1891.033;1091.85606
 367.41;  327.834; -751.837; -634.312;1079.67059
 367.74; -558.203; -265.799;   12.683;-292.40360
 368.08; -192.526;   41.524;  270.685;-234.05019
 368.42; -224.833;   18.163;  130.021;-242.99540
 368.75;-1317.180;-1394.156;-1432.980;76.97602
 369.09;-1733.816;-1732.854;-1740.310;-0.96103
 369.43; -598.130; -589.874; -558.307;-8.25556
 369.76;  355.496;  391.168;  488.021;-35.67261
 370.10; -412.831; -381.172; -320.978;-31.65866
 370.44; 1732.522; 1712.474; 1877.691;20.04816
 370.78; 2646.169; 2613.161; 2764.688;33.00869
 371.11; 4756.818; 4747.179; 4955.686; 9.63894
 371.45; 2534.857; 2523.139; 2685.358;11.71789
 371.79; 6735.590; 6652.072; 6871.699;83.51898
 372.12; 4981.957; 4884.371; 5073.704;97.58637
 372.46; 4088.909; 4008.086; 4182.031;80.82305
 372.80;  441.885;  339.777;  541.361;102.10772
 373.13;  795.959;  582.369;  893.704;213.59079
 373.47; 1789.974; 1517.353; 1903.373;272.62108
 373.81;  167.885;  -68.888;  292.361;236.77302
 374.14; -859.502;-1057.168; -784.979;197.66650
 374.48;  239.206;  -11.209;  185.693;250.41519
 374.82;  484.219;  108.777;  365.028;375.44275
 375.15; 3070.533; 2611.797; 3011.359;458.73559
 375.49; 4218.919; 3674.410; 4234.365;544.50912
 375.83; 5115.252; 4516.077; 5134.699;599.17510
 376.16; 4950.530; 4219.133; 4833.692;731.39749
 376.50; 2125.226; 1350.436; 2033.362;774.79004
 376.84; 1434.214;  582.115; 1349.694;852.09853
 377.17; 1936.519;  934.811; 1846.024;1001.70734
 377.51; 3085.178; 1998.486; 2999.356;1086.69169
 377.85; 5584.501; 4325.829; 5433.021;1258.67195
 378.18; 3034.870; 1660.793; 2985.359;1374.07743
 378.52; 2250.157;  533.840; 2236.353;1716.31684
 378.86;  847.100;-1097.769;  962.346;1944.86916
 379.19; 1585.177; -713.514; 1723.356;2298.69067
 379.53; 2579.243;   34.752; 2714.031;2544.49108
 379.87; 2226.558; -644.229; 2347.695;2870.78630
 380.20; 2547.858; -791.528; 2557.024;3339.38626
 380.54; 1997.862;-1916.533; 1971.692;3914.39511
 380.87; 2768.578;-1859.249; 2699.364;4627.82611
 381.21; 5473.277;  139.385; 5779.369;5333.89213
 381.55;10228.303; 4081.692;10467.372;6146.61087
 381.88;11380.625; 4290.703;11611.370;7089.92106
 382.22; 9842.536; 1895.794; 9902.692;7946.74137
 382.56; 7821.832;-1248.168; 7907.354;9070.00052
 382.89; 8855.858;-1422.195; 8844.691;10278.05259
 383.23;11716.886;   54.776;11568.695;11662.11010
 383.57;14866.248; 1806.081;14653.032;13060.16693
 383.90;16476.888; 1700.108;16120.695;14776.78051
 384.24;17943.845; 1630.818;17628.356;16313.02706
 384.58;17473.187; -840.857;17367.357;18314.04340
 384.91;19435.539; -789.876;19460.026;20225.41553
 385.25;21174.212;-1412.883;21351.027;22587.09547
 385.58;24029.934; -461.939;24186.701;24491.87308
 385.92;27048.315;  613.346;27449.373;26434.96905
 386.26;29669.602; 1388.393;29934.034;28281.20913
 386.59;32322.920; 1751.742;32812.366;30571.17816
 386.93;33447.256;  399.739;33953.033;33047.51660
 387.27;34829.188; -593.524;35185.691;35422.71177
 387.60;34678.158;-2639.828;35033.687;37317.98622
 387.94;38192.527; -877.863;38845.358;39070.39000
 388.28;41130.871; -192.208;41968.359;41323.07947
 388.61;43868.516;  500.481;45056.023;43368.03455
 388.95;44631.838;-1043.508;45604.355;45675.34576
 389.28;47309.882;  226.114;48051.694;47083.76792
 389.62;50087.608; 2037.054;50156.702;48050.55370
 389.96;51735.602; 3502.726;51902.368;48232.87580
 390.29;50782.882; 1405.781;51232.027;49377.10057
 390.63;51112.179;  -74.849;51529.689;51187.02808
 390.97;50577.183;-1428.853;50660.357;52006.03659
 391.30;52428.215;  976.448;52263.694;51451.76690
 391.64;52123.232; 1028.764;52021.029;51094.46760
 391.97;54025.578; 3113.084;53870.698;50912.49380
 392.31;53319.608; 1918.054;53434.035;51401.55370
 392.65;54692.922; 4466.407;54879.032;50226.51490
 392.98;53544.878; 3472.452;53746.027;50072.42642
 393.32;53437.187; 3432.810;53403.690;50004.37673
 393.65;51645.508; 1459.488;51321.022;50186.01992
 393.99;49458.167; -229.503;49161.355;49687.66991
 394.33;47554.524; -536.860;47462.358;48091.38388
 394.66;46382.877; -115.881;46438.027;46498.75805
 395.00;45151.514;  968.483;45320.690;44183.03149
 395.34;42605.833;  378.497;42720.021;42227.33555
 395.67;39735.151; -453.820;40090.686;40188.97125
 396.01;40770.819; 1328.511;40728.019;39442.30833
 396.34;41548.214; 3291.782;41417.694;38256.43288
 396.68;42264.929; 4701.733;41834.367;37563.19620
 397.02;38661.918; 2669.411;38610.032;35992.50639
 397.35;36370.227; 1831.769;36691.696;34538.45739
 397.69;32749.172;   28.491;33307.022;32720.68114
 398.02;31839.137;  171.527;32305.351;31667.61069
 398.36;30585.160; -115.496;30685.354;30700.65561
 398.70;29706.411;  -76.413;29684.010;29782.82423
 399.03;28173.687;   78.646;28238.669;28095.04152
 399.37;27623.470; 1159.528;27694.684;26463.94232
 399.70;25905.567;  784.429;25991.030;25121.13733
 400.04;24769.556;  681.107;24777.028;24088.44888
 400.37;21451.445;-1723.780;21444.681;23175.22529
 400.71;22261.379;  -78.379;22079.339;22339.75787
 401.05;19820.135;-1252.138;19456.684;21072.27328
 401.38;22663.174; 2866.823;22070.355;19796.35053
 401.72;20521.467; 2162.531;19976.017;18358.93586
 402.05;20083.134; 2788.197;19692.017;17294.93756
 402.39;16039.485; -293.821;15954.019;16333.30663
 402.73;19621.860; 4015.470;19592.025;15606.39000
 403.06;18793.880; 3885.450;18794.027;14908.42982
 403.40;21675.208; 7305.455;21555.026;14369.75329
 403.73;17489.898; 3710.764;17215.029;13779.13358
 404.07;17842.192; 4874.471;17552.691;12967.72164
 404.41;12965.810;  704.521;12578.018;12261.28859
 404.74;12074.482;  586.182;11933.019;11488.29948
 405.08;10416.483; -563.153;10369.352;10979.63622
 405.41;11756.539; 1591.457;11948.359;10165.08151
 405.75;10427.916;  761.413;10599.698;9666.50265
 406.08;11195.242; 2112.421;11294.697;9082.82101
 406.42; 8520.912; -212.249; 8553.365;8733.16115
 406.76; 9561.549; 1184.447; 9490.361;8377.10125
 407.09; 9931.854; 1805.809; 9858.357;8126.04442
 407.43;12082.869; 4316.794;12061.359;7766.07471
 407.76;10554.899; 3292.763;10552.030;7262.13630
 408.10; 8694.575; 1925.087; 8759.364;6769.48768
 408.43; 6518.852;   40.811; 6461.690;6478.04102
 408.77; 5820.112; -386.448; 5826.681;6206.55998
 409.11; 7382.121; 1517.877; 7378.015;5864.24333
 409.44; 7168.828; 1683.169; 7227.021;5485.65970
 409.78; 8563.177; 3492.820; 8596.356;5070.35767
 410.11; 6364.819; 1371.178; 6361.019;4993.64064
 410.45; 7922.815; 3139.516; 7918.019;4783.29846
 410.78; 7266.244; 2561.418; 7338.698;4704.82577
 411.12; 7048.928; 2644.067; 7110.367;4404.86151
 411.45; 5078.816;  909.181; 5201.019;4169.63485
 411.79; 4342.778;  445.886; 4471.014;3896.89196
 412.13; 4016.472;  216.859; 4115.018;3799.61307
 412.46; 4949.128; 1280.536; 5014.683;3668.59232
 412.80; 4023.102;  398.563; 4029.346;3624.53923
 413.13; 2904.757; -418.425; 2912.011;3323.18139
 413.47; 1965.777;-1156.779; 2085.681;3122.55624
 413.80; 2597.804; -346.806; 2706.351;2944.61035
 414.14; 2980.159;   11.838; 3097.687;2968.32126
 414.47; 2250.816; -709.819; 2169.686;2960.63451
 414.81; 1891.123; -933.459; 1886.349;2824.58245
 415.15; 3752.146; 1107.185; 3711.019;2644.96036
 415.48; 2947.166;  461.497; 3094.021;2485.66923
 415.82; 2313.473; -270.476; 2591.684;2583.94879
 416.15; 3053.112;  570.219; 3425.681;2482.89332
 416.49; 3575.808; 1230.856; 3976.685;2344.95253
 416.82; 4589.868; 2596.461; 4878.359;1993.40668
 417.16; 2905.901; 1079.429; 3249.030;1826.47202
 417.49; 3505.224; 1728.772; 3695.362;1776.45194
 417.83; 1706.182;   13.815; 1796.357;1692.36754
 418.16;  744.816; -982.485;  808.686;1727.30152
 418.50;  985.490; -654.826; 1074.020;1640.31616
 418.83; 2666.437; 1135.894; 2819.347;1530.54263
 419.17; 3426.039; 2001.293; 3470.338;1424.74596
 419.51; 3744.076; 2306.923; 3722.343;1437.15314
 419.84; 2432.434;  982.230; 2345.013;1450.20385
 420.18; 1774.097;  391.568; 1774.679;1382.52902
 420.51; -123.587;-1410.415; -115.656;1286.82832
 420.85;  319.744; -895.746;  405.343;1215.48988
 421.18;  300.807; -846.476;  301.018;1147.28348
 421.52;  879.211; -158.215;  957.360;1037.42642
 421.85;  563.878; -438.215;  592.694;1002.09274
 422.19; -356.192;-1283.811; -196.982;927.61852
 422.52;  623.477; -300.480;  736.685;923.95696
 422.86; 4392.916; 3457.413; 4466.698;935.50231
 423.19; 7849.277; 6957.051; 7778.702;892.22649
 423.53; 7489.553; 6678.443; 7477.028;811.11078
 423.86; 5190.200; 4376.796; 5139.359;813.40396
 424.20; 3315.491; 2493.839; 3305.020;821.65187
 424.53; 2569.449; 1777.549; 2486.015;791.89978
 424.87; 2548.470; 1888.861; 2685.684;659.60967
 425.20;  840.486;  292.844;  959.353;547.64200
 425.54;  686.798;   80.866;  885.350;605.93245
 425.87;-1182.221;-1845.448;-1173.986;663.22631
 426.21;  823.469;   82.862;  794.684;740.60729
 426.54; 1540.161;  921.169; 1506.354;618.99167
 426.88; 4195.825; 3674.506; 4258.020;521.31888
 427.21; 3184.164; 2647.166; 3293.021;536.99746
 427.55; 2682.539; 2001.791; 2700.026;680.74784
 427.89; -715.438;-1405.900; -749.304;690.46249
 428.22; -298.111; -899.893; -276.638;601.78221
 428.56; -201.795; -723.876; -200.307;522.08117
 428.89;  539.850;  123.147;  608.023;416.70360
 429.23; 2154.848; 1853.816; 2199.356;301.03217
 429.56; 4916.182; 4761.481; 5134.356;154.70054
 429.90; 9969.208; 9779.788;10066.026;189.41995
 430.23; 8392.244; 8149.752; 8535.031;242.49210
 430.57; 5099.510; 4843.820; 5090.356;255.68965
 430.90;  415.086;  153.912;  495.344;261.17356
 431.24; -517.232; -811.770; -447.987;294.53854
 431.57; -126.566; -501.769;  -17.321;375.20317
 431.91; 1045.439;  699.226; 1089.013;346.21236
 432.24; 1629.484; 1356.847; 1697.352;272.63656
 432.57; 3507.150; 3225.180; 3537.019;281.96989
 432.91; 1735.840; 1412.157; 1788.355;323.68250
 433.24;  479.486;  129.178;  438.353;350.30867
 433.58; -976.584;-1319.084; -995.656;342.50009
 433.91;  556.709;  273.290;  559.672;283.41909
 434.25; 1493.665; 1222.335; 1555.000;271.33061
 434.58; 2145.352; 2047.315; 2282.336;98.03709
 434.92; 1836.081; 1784.251; 1971.344;51.83036
 435.25; 3653.484; 3499.846; 3696.019;153.63826
 435.59; 1816.199; 1589.131; 1796.025;227.06790
 435.92;   21.858; -214.862;  -17.642;236.71993
 436.26; -429.445; -588.892; -412.305;159.44752
 436.59; 1909.233; 1746.430; 1877.363;162.80263
 436.93; 3534.548; 3295.448; 3505.694;239.09989
 437.26;  989.528;  754.135;  923.358;235.39273
 437.60;  476.516;  277.480;  544.023;199.03625
 437.93;  342.887;  257.109;  442.695;85.77847
 438.27;  655.180;  604.150;  859.023;51.02945
 438.60;-1588.562;-1703.440;-1476.987;114.87868
 438.94;  597.152;  469.845;  771.353;127.30629
 439.27;  673.194;  540.803;  795.025;132.39068
 439.61; 1674.479; 1564.852; 1857.019;109.62737
 439.94; -417.534; -618.802; -400.316;201.26817
 440.28;   93.489; -106.825;  147.686;200.31377
 440.61; -403.856; -578.814; -409.648;174.95798
 440.94; -668.545; -821.457; -632.318;152.91204
 441.28;-1866.255;-2007.413;-1889.323;141.15859
 441.61;  574.057;  379.942;  535.674;194.11469
 441.95; 1858.148; 1723.183; 1792.019;134.96444
 442.28; 2611.216; 2527.113; 2546.694;84.10329
 442.62; -124.830; -158.840; -142.312;34.01039
 442.95;-2018.857;-2073.813;-1940.648;54.95594
 443.29; -796.852; -866.151; -694.314;69.29914
 443.62;  668.804;  589.527;  779.351;79.27736
 443.96; 1651.854; 1532.809; 1742.024;119.04442
 444.29;  678.535;  576.461;  769.692;102.07403
 444.63; -498.892; -574.777; -438.986;75.88549
 444.96; -789.556; -756.113; -754.986;-33.44240
 445.29;-1555.499;-1638.171;-1579.645;82.67263
 445.63;  116.820;  -15.823;   51.353;132.64370
 445.96;-1166.182;-1312.154;-1255.647;145.97261
 446.30; -997.146;-1036.524; -962.976;39.37843
 446.63;-3148.494;-3143.842;-3086.645;-4.65220
 446.97;-2183.256;-2186.745;-2111.657; 3.48886
 447.30;-1281.975;-1303.692;-1284.997;21.71635
 447.64; 1014.720; 1015.945; 1079.673;-1.22511
 447.97; -164.910; -172.092;  -73.989; 7.18173
 448.30;  438.095;  392.904;  435.012;45.19092
 448.64;-1504.240;-1482.428;-1526.321;-21.81146
 448.97; -910.847; -907.155; -927.647;-3.69201
 449.31;-1609.780;-1643.891;-1539.639;34.11112
 449.64;-1294.806;-1384.531;-1230.975;89.72504
 449.98;-1138.212;-1191.123;-1101.318;52.91136
 450.31; 1098.104; 1139.227; 1139.013;-41.12336
 450.64;  635.490;  596.840;  607.020;38.65051
 450.98;  897.475;  868.522;  931.351;28.95355
 451.31;-1023.270;-1115.064;-1053.992;91.79395
 451.65;  125.079;   89.586;  137.010;35.49260
 451.98; -436.176; -523.494; -470.313;87.31786
 452.32; 1045.870; 1061.126; 1102.693;-15.25658
 452.65;  893.526;  915.471;  927.358;-21.94469
 452.99; 3013.472; 3030.526; 3080.018;-17.05393
 453.32;   64.097;   24.901;   84.679;39.19534
 453.65; -135.860; -268.809;  -87.649;132.94947
 453.99;-1942.512;-2042.491;-1894.647;99.97908
 454.32;-1529.878;-1597.791;-1430.984;67.91306
 454.66; -508.517; -529.819; -412.648;21.30288
 454.99;  -26.200;  -19.469;   92.017;-6.73115
 455.32; 2145.754; 2138.912; 2171.011; 6.84193
 455.66; 1342.433; 1293.566; 1335.013;48.86711
 455.99; 1611.781; 1521.884; 1474.681;89.89672
 456.33;  779.106;  683.892;  730.680;95.21338
 456.66;  770.120;  754.878;  718.015;15.24265
 457.00; -625.523; -635.813; -608.315;10.29029
 457.33;  511.490;  539.507;  499.020;-28.01684
 457.66;  327.148;  337.183;  323.019;-10.03487
 458.00;  431.781;  442.217;  468.015;-10.43627
 458.33;-2059.199;-2156.803;-1988.983;97.60423
 458.67;-2017.181;-2042.155;-1913.647;24.97329
 459.00; -908.536; -976.467; -826.983;67.93075
 459.33;  216.454;  251.544;  222.349;-35.09069
 459.67; -281.251; -280.751; -264.323;-0.49957
 460.00;-1396.938;-1359.730;-1405.659;-37.20742
 460.34;-1634.611;-1600.390;-1588.660;-34.22137
 460.67; -830.980; -542.687; -613.997;-288.29352
 461.00; -409.612; -192.722; -177.326;-216.89008
 461.34; -221.214;  -76.788;   11.349;-144.42606
 461.67;   29.795;  -49.131;  103.350;78.92667
 462.01; -275.215; -282.120; -247.652; 6.90523
 462.34;  506.087;  459.911;  492.344;46.17628
 462.67; -404.920; -524.415; -460.657;119.49430
 463.01;  604.820;  538.177;  712.686;66.64268
 463.34;  762.895;  804.768;  876.696;-41.87322
 463.68; 2661.891; 2726.438; 2778.029;-64.54670
 464.01; 1215.127; 1166.204; 1183.016;48.92395
 464.34;  691.052;  641.280;  634.673;49.77182
 464.68;-1692.938;-1742.730;-1745.659;49.79156
 465.01;-1098.634;-1059.367;-1081.329;-39.26663
 465.35;-1821.286;-1818.381;-1758.327;-2.90471
 465.68; 1757.804; 1757.860; 1911.684;-0.05631
 466.01; 3575.862; 3524.135; 3686.025;51.72742
 466.35; 3664.840; 3592.157; 3778.022;72.68352
 466.68; 2321.780; 2285.884; 2298.681;35.89638
 467.01; 4283.835; 3487.495; 2447.021;796.34032
 467.35; 4361.230; 3603.432; 2534.029;757.79753
 467.68; 3004.144; 2217.520; 1280.685;786.62465
 468.02;-1552.284;-1545.050;-1480.327;-7.23396
 468.35; -985.593; -921.408; -754.657;-64.18461
 468.68; -294.532; -192.803;  -75.983;-101.72911
 469.02; 2189.132; 2255.199; 2451.683;-66.06686
 469.35;  955.806;  898.191; 1048.351;57.61512
 469.68;  449.787;  322.877;  574.015;126.90999
 470.02;-1203.264;-1285.737;-1153.325;82.47252
 470.35; -829.578; -805.424; -759.322;-24.15433
 470.69;-1045.878; -791.458; -862.984;-254.41960
 471.02; -940.890; -671.445; -640.319;-269.44444
 471.35; -484.933; -237.068; -192.991;-247.86489
 471.69; -188.599; -102.736;   42.342;-85.86353
 472.02; 1287.488; 1332.176; 1476.353;-44.68861
 472.35; 2186.905; 2154.424; 2380.030;32.48121
 472.69; 1381.892; 1361.103; 1416.362;20.78902
 473.02; -711.534; -714.469; -657.650; 2.93518
 473.36;-1925.563;-1802.772;-1869.320;-122.79104
 473.69; -692.182; -693.154; -615.981; 0.97193
 474.02; 3429.506; 3412.825; 3464.355;16.68080
 474.36; 3451.843; 3350.153; 3505.356;101.68999
 474.69; 2699.132; 2715.532; 2809.350;-16.40020
 475.02;  278.770;  287.228;  433.680;-8.45805
 475.36;   27.473;   64.191;  146.684;-36.71822
 475.69;  219.125;  141.872;  336.349;77.25286
 476.02; -326.555; -414.114; -275.319;87.55930
 476.36;  851.155;  773.843; 1024.353;77.31207
 476.69;  440.861;  464.469;  571.691;-23.60761
 477.02;   49.513;   75.150;  216.356;-25.63756
 477.36;-1278.220;-1276.115;-1202.319;-2.10532
 477.69; -766.278; -766.057; -602.660;-0.22103
 478.02; -563.612; -492.722; -404.326;-70.89008
 478.36; 2240.114; 2295.884; 2368.014;-55.77063
 478.69; 1279.472; 1331.859; 1359.018;-52.38727
 479.02; 2733.771; 2837.561; 2848.347;-103.79002
 479.36;   48.412;  150.587;  173.343;-102.17543
 479.69;  586.085;  667.247;  666.677;-81.16215
 480.03;  -94.228;  -35.107;  -89.320;-59.12029
 480.36; 2233.441; 2282.890; 2277.014;-49.44954
 480.69; 1609.747; 1670.251; 1636.010;-60.50399
 481.03;  605.071;  561.927;  710.676;43.14429
 481.36;-1911.567;-2000.435;-1976.654;88.86813
 481.69; 1754.469; 1657.195; 1775.017;97.27430
 482.03;  954.157;  894.840;  888.687;59.31786
 482.36; 2967.115; 2963.883; 3091.681; 3.23278
 482.69; -682.273; -635.728; -615.326;-46.54483
 483.03; 2191.719; 2216.614; 2334.007;-24.89518
 483.36; -151.254; -107.747;  -63.657;-43.50706
 483.69; 1004.137;  997.194; 1115.351; 6.94334
 484.03;-1871.513;-1828.490;-1812.647;-43.02228
 484.36; -216.932; -245.736; -163.325;28.80450
 484.69;  -20.014;  -98.319;   35.332;78.30509
 485.02; 2176.699; 2310.300; 2473.337;-133.60099
 485.36; 2200.438; 2419.560; 2491.347;-219.12234
 485.69; 1169.400; 1398.265; 1409.342;-228.86455
 486.02; -377.635; -317.032; -378.329;-60.60371
 486.36; -843.585; -740.750; -689.656;-102.83529
 486.69;-1262.220;-1140.449;-1095.986;-121.77131
 487.02;-1478.228;-1417.107;-1273.987;-61.12029
 487.36;-1582.558;-1655.111;-1592.319;72.55284
 487.69; -558.560; -608.776; -518.653;50.21576
 488.02; -533.610; -638.058; -541.993;104.44734
 488.36; -272.329; -240.671; -235.666;-31.65714
 488.69;-1029.624; -969.710;-1036.995;-59.91424
 489.02;  849.149;  979.849;  921.352;-130.69984
 489.36; -350.809; -378.861; -338.642;28.05191
 489.69; 2178.465; 2173.200; 2362.017; 5.26477
 490.02; 1362.068; 1351.264; 1592.342;10.80484
 490.35; 6325.363; 6393.303; 6602.337;-67.93942
 490.69; 3687.703; 3757.963; 3805.338;-70.26085
 491.02; 3834.728; 3859.271; 3789.008;-24.54381
 491.35; 1029.417; 1060.582;  980.011;-31.16454
 491.69; 3051.467; 2932.197; 2963.350;119.26953
 492.02; 3308.153; 3268.511; 3214.686;39.64166
 492.35; 1559.449; 1536.882; 1483.015;22.56713
 492.69;  457.386;  563.613;  458.673;-106.22613
 493.02; -677.010; -630.323; -617.001;-46.68675
 493.35;-1302.317;-1263.683;-1247.665;-38.63400
 493.68; -848.233; -848.769; -822.654; 0.53616
 494.02;-1337.555;-1311.114;-1265.319;-26.44070
 494.35;-1172.210;-1180.459;-1077.984; 8.24877
 494.68;-2987.493;-2928.177;-2891.978;-59.31648
 495.02;-1707.870;-1696.133;-1586.317;-11.73727
 495.35; -935.924; -891.411; -809.990;-44.51318
 495.68;  515.474;  490.523;  629.685;24.95151
 496.02; 2819.842; 2631.821; 2830.356;188.02128
 496.35; 4627.114; 4373.551; 4621.014;253.56305
 496.68; 3692.715; 3425.617; 3647.006;267.09801
 497.01; -134.323; -200.011;  -83.332;65.68777
 497.35;-2384.294;-2395.706;-2370.328;11.41229
 497.68;-2011.884;-2005.785;-1951.319;-6.09851
 498.01; -435.871; -493.131; -457.984;57.26034
 498.34;  379.770;  376.894;  437.013; 2.87596
 498.68;  239.458;  244.206;  323.016;-4.74816
 499.01; -688.510; -632.160; -589.647;-56.35051
 499.34;-1569.181;-1569.821;-1502.314; 0.63996
 499.68; -676.878; -658.124; -636.651;-18.75327
 500.01; 1699.425; 1656.240; 1694.012;43.18479
 500.34; 2269.409; 2253.257; 2296.676;16.15212
 500.67;  781.041;  790.958;  811.339;-9.91662
 501.01;  940.691;  951.309; 1013.003;-10.61800
 501.34;  442.708;  446.958;  490.339;-4.24996
 501.67; 2687.721; 2665.612; 2741.340;22.10924
 502.00; -579.920; -561.748; -523.990;-18.17236
 502.34; -978.553; -948.782; -867.986;-29.77131
 502.67;-2192.837;-2266.833;-2152.646;73.99541
 503.00; -169.158; -197.846;  -55.311;28.68794
 503.34;  977.810;  930.187; 1039.352;47.62260
 503.67; 2479.454; 2531.211; 2629.349;-51.75701
 504.00; 1357.452; 1325.212; 1378.015;32.23992
 504.33;  433.110;  430.888;  516.681; 2.22189
 504.67; -390.612; -419.055; -420.660;28.44326
 505.00; -156.972; -199.695; -132.663;42.72248
 505.33; 1602.430; 1512.569; 1586.012;89.86099
 505.66;  859.822;  753.509;  901.686;106.31343
 506.00;  988.117;  921.547;  978.348;66.57019
 506.33;-1241.579;-1240.756;-1210.655;-0.82235
 506.66;-1003.574; -988.428; -909.322;-15.14616
 506.99; -773.264; -748.070; -639.325;-25.19414
 507.33;    1.390;  -60.724;   79.007;62.11435
 507.66;  985.067;  994.598; 1132.675;-9.53122
 507.99;  792.105;  850.560;  980.013;-58.45567
 508.32; 2399.807; 2497.190; 2561.351;-97.38352
 508.66;  314.792;  357.873;  337.683;-43.08082
 508.99;  876.406;  879.593;  910.343;-3.18768
 509.32;   36.707;  -38.708;   47.005;75.41433
 509.65; 1903.792; 1840.539; 1973.349;63.25286
 509.99;  124.192;   17.137;  110.024;107.05497
 510.32; 2990.457; 2926.208; 2947.016;64.24877
 510.65; 1508.439; 1611.226; 1540.680;-102.78696
 510.98; 3466.160; 3587.504; 3553.687;-121.34405
 511.31;  648.805;  801.192;  758.684;-152.38727
 511.65; 2763.089; 2753.576; 2757.011; 9.51234
 511.98; 2418.774; 2498.557; 2399.347;-79.78254
 512.31; 1902.111; 1959.887; 1931.681;-57.77573
 512.64; 1005.459; 1016.538;  986.683;-11.07912
 512.98; 2075.541; 2029.455; 2075.360;46.08662
 513.31; 2821.882; 2824.781; 2736.361;-2.89909
 513.64; 2227.843; 2236.154; 2219.689;-8.31035
 513.97;  723.507;  761.490;  762.355;-37.98383
 514.31; -483.537; -468.799; -324.650;-14.73762
 514.64; -145.602; -183.066;   -6.992;37.46333
 514.97; -338.259; -370.742; -206.324;32.48307
 515.30;   62.102;   14.230;  115.346;47.87188
 515.63; -578.567; -573.102; -585.987;-5.46452
 515.97; -118.239; -139.763; -206.321;21.52459
 516.30;  455.411;  495.921;  458.677;-40.50944
 516.63;  111.748;  119.584;  135.677;-7.83597
 516.96; 1606.760; 1571.571; 1632.679;35.18888
 517.29;  407.755;  332.577;  329.011;75.17799
 517.63; 1107.413; 1043.252; 1060.343;64.16029
 517.96;  600.090;  522.908;  507.345;77.18139
 518.29; 1883.125; 1795.873; 1809.349;87.25149
 518.62; 1936.492; 1935.839; 1846.354; 0.65323
 518.96; 1123.150; 1175.847; 1148.686;-52.69712
 519.29;  798.106;  870.559;  843.013;-72.45261
 519.62;  671.733;  710.933;  770.675;-39.19993
 519.95; -803.599; -715.403; -791.658;-88.19619
 520.28;  659.129;  651.869;  625.016; 7.26034
 520.62; 1926.501; 1909.829; 1828.021;16.67263
 520.95; 4183.508; 4107.155; 4074.689;76.35257
 521.28; 2434.214; 2363.449; 2319.694;70.76520
 521.61; 2653.223; 2565.773; 2652.028;87.45024
 521.94; 3109.483; 3003.514; 3146.686;105.96921
 522.28; 3427.401; 3372.598; 3504.342;54.80245
 522.61; 1625.050; 1591.282; 1652.673;33.76808
 522.94;  194.068;  118.931;  180.675;75.13749
 523.27; -148.595; -238.073; -185.324;89.47763
 523.60; 1195.778; 1081.220; 1175.681;114.55828
 523.94; 2039.838; 2016.159; 2037.689;23.67978
 524.27; 3046.817; 2972.180; 3100.686;74.63724
 524.60; 2316.441; 2282.223; 2389.014;34.21814
 524.93;  741.470;  655.860;  863.017;85.61001
 525.26;  322.797;  320.867;  420.683; 1.92939
 525.59; -310.913; -350.422; -247.322;39.50826
 525.93;  929.099;  905.566;  884.013;23.53378
 526.26;  101.440;  108.558;  135.680;-7.11791
 526.59;  510.421;  524.911;  484.344;-14.49038
 526.92;  425.746;  324.586;  496.677;101.15927
 527.25;  349.392;  232.273;  410.341;117.11877
 527.59; -645.326; -773.674; -540.332;128.34831
 527.92; -924.662; -942.005; -843.999;17.34320
 528.25; -307.925; -375.076; -267.990;67.15076
 528.58;   36.433;  -56.102;    4.013;92.53548
 528.91;-1548.271;-1650.397;-1480.992;102.12660
 529.24;-1335.959;-1242.041;-1217.995;-93.91798
 529.58;-1434.275;-1294.060;-1248.993;-140.21490
 529.91; 3752.126; 3983.538; 3850.683;-231.41177
 530.24; 2483.835; 2490.161; 2509.021;-6.32601
 530.57; 1590.145; 1532.852; 1551.018;57.29301
 530.90;-3304.209;-3425.126;-3263.984;120.91680
 531.23;-1428.845;-1462.492;-1410.980;33.64711
 531.57;   96.512;   84.485;  209.689;12.02706
 531.90; 1256.106; 1101.892; 1186.013;154.21372
 532.23; 1338.062; 1163.937; 1373.675;174.12558
 532.56;  581.421;  431.578;  537.344;149.84261
 532.89;  261.090;  255.575;  337.345; 5.51404
 533.22;-2276.288;-2270.712;-2258.328;-5.57614
 533.56;-1885.000;-1944.000;-1826.667;58.99966
 533.89;-2074.617;-2113.050;-2030.994;38.43339
 534.22;  884.452;  794.546;  943.015;89.90591
 534.55;  252.792;  255.873;  290.016;-3.08082
 534.88;   36.097;  -31.099;  101.012;67.19534
 535.21;-1072.932;-1079.736;-1052.658; 6.80313
 535.55;-1264.235;-1310.434;-1148.654;46.19943
 535.88;-1652.171;-1710.832;-1625.646;58.66072
 536.21;-1668.519;-1845.484;-1663.981;176.96444
 536.54;-1467.270;-1640.731;-1613.325;173.46061
 536.87; -361.650; -462.350; -392.665;100.70002
 537.20; -222.305; -641.696; -605.663;419.39085
 537.53; 2184.074; 1755.258; 1910.009;428.81505
 537.87; 5851.124; 5331.207; 5516.016;519.91612
 538.20; 5577.473; 5500.192; 5664.351;77.28110
 538.53; 3238.153; 3166.844; 3225.353;71.30867
 538.86; -153.846; -161.491;  -98.980; 7.64506
 539.19; -597.522; -643.480; -591.982;45.95764
 539.52; -415.178; -468.158; -290.314;52.97942
 539.85;-2216.876;-2300.126;-2200.318;83.25047
 540.19;-2120.572;-2226.763;-2012.321;106.19160
 540.52;-1839.559;-1991.777;-1813.320;152.21814
 540.85; 1017.478;  869.853; 1115.018;147.62465
 541.18; 1853.194; 1718.135; 1915.691;135.05905
 541.51; 2549.844; 2502.153; 2649.023;47.69169
 541.84;  276.421;  223.577;  366.678;52.84397
 542.17;  333.722;  228.943;  351.674;104.77897
 542.50; -945.234;-1111.435; -980.987;166.20147
 542.84; -483.245; -642.090; -463.655;158.84431
 543.17;-1575.602;-1681.400;-1547.992;105.79803
 543.50;-1449.266;-1500.735;-1317.658;51.46946
 543.83;  -26.926;   31.925;   73.343;-58.85162
 544.16; 1251.764;  711.234;  774.679;540.53004
 544.49; 1733.124; 1134.540; 1189.016;598.58449
 544.82;  955.181;  268.815;  448.356;686.36618
 545.15; 1072.224; 1084.438; 1258.029;-12.21438
 545.49; 2016.239; 2074.757; 2218.364;-58.51845
 545.82; 2070.216; 2145.114; 2263.361;-74.89807
 546.15;  508.812;  448.852;  620.019;59.96036
 546.48; -464.242; -610.760; -384.322;146.51813
 546.81;-1183.588;-1384.747;-1107.323;201.15927
 547.14;-1084.259;-1217.743;-1035.324;133.48375
 547.47; -389.258; -425.076; -307.324;35.81777
 547.80;  275.789;  177.209;  197.682;98.57972
 548.13; 1205.503; 1080.827; 1113.022;124.67569
 548.47; 1488.456; 1355.875; 1372.682;132.58177
 548.80;  891.705;  876.961;  896.672;14.74494
 549.13;-1067.656;-1077.344; -976.999; 9.68879
 549.46; -105.663; -145.671;  -38.333;40.00783
 549.79;  688.362;  717.304;  724.004;-28.94181
 550.12; 3930.076; 3954.589; 3884.010;-24.51250
 550.45; 2860.097; 2868.568; 2865.012;-8.47132
 550.78; 3060.412; 2995.587; 3091.677;64.82457
 551.11;  935.071;  849.594;  985.009;85.47695
 551.44; 1284.460; 1332.204; 1440.350;-47.74340
 551.78;  125.833;   72.164;  229.354;53.66889
 552.11;  619.784;  551.213;  716.015;68.57088
 552.44; -448.249; -634.420; -538.656;186.17118
 552.77; -969.834;-1108.836;-1026.979;139.00256
 553.10;-1881.462;-1961.542;-1900.974;80.07947
 553.43; -776.872; -792.797; -686.317;15.92599
 553.76; -906.927; -892.741; -804.657;-14.18564
 554.09;  792.743;  734.256;  874.343;58.48750
 554.42; -308.917; -433.752; -301.989;124.83512
 554.75; 1530.096; 1420.569; 1572.012;109.52629
 555.08; 1577.420; 1454.245; 1582.344;123.17560
 555.42; 1636.740; 1487.592; 1714.676;149.14770
 555.75;   60.447; -194.116;  -52.652;254.56271
 556.08;-1279.530;-1461.472;-1285.316;181.94164
 556.41;-1711.559;-1838.777;-1708.653;127.21814
 556.74;  133.083;  -10.751;  236.677;143.83376
 557.07; -214.563; -344.106; -122.653;129.54331
 557.40; 1717.511; 1617.485; 1810.023;100.02604
 557.73; 1336.564; 1355.099; 1416.696;-18.53479
 558.06; 1974.521; 1965.142; 1970.024; 9.37945
 558.39;  754.462;  728.536;  633.016;25.92565
 558.72; 1056.101;  969.231;  991.679;86.86950
 559.05;  859.441;  768.223;  761.014;91.21780
 559.38; 1070.456;  931.875; 1056.682;138.58040
 559.71;-1377.265;-1444.403;-1400.991;67.13783
 560.05;-1455.999;-1482.668;-1362.000;26.66905
 560.38;-2503.355;-2547.645;-2470.336;44.29011
 560.71;-1285.649;-1330.685;-1251.998;45.03641
 561.04;-1948.224;-2021.778;-2027.653;73.55420
 561.37;  828.817;  769.180;  777.019;59.63690
 561.70; 1898.138; 1873.859; 1944.351;24.27940
 562.03; 3745.447; 3682.217; 3857.015;63.23040
 562.36;  261.435;  260.230;  409.346; 1.20453
 562.69; -191.166; -234.504; -101.645;43.33862
 563.02; -990.814;-1019.190; -954.643;28.37605
 563.35;  817.449;  717.215;  908.015;100.23414
 563.68; -641.549; -718.786; -512.652;77.23720
 564.01; -836.147; -907.856; -638.976;71.70870
 564.34;-1632.136;-1649.868;-1463.975;17.73185
 564.67;-1321.858;-1376.811;-1169.649;54.95355
 565.00;-1599.893;-1681.109;-1493.320;81.21508
 565.33; -541.231; -640.437; -487.654;99.20555
 565.67;  239.097;  147.235;  286.346;91.86167
 566.00; 1298.072; 1282.926; 1447.343;15.14600
 566.33;  561.066;  484.600;  673.008;76.46572
 566.66; 1835.118; 1738.213; 1956.682;96.90455
 566.99; 2089.493; 1934.504; 2066.687;154.98963
 567.32; 1611.169; 1505.828; 1652.021;105.34066
 567.65; -460.198; -516.805; -466.983;56.60661
 567.98;-1238.603;-1332.065;-1171.992;93.46197
 568.31; -255.625; -344.042; -189.661;88.41705
 568.64;  251.064;  147.269;  332.341;103.79497
 568.97; -420.891; -469.778; -431.653;48.88719
 569.30;-1377.849;-1436.487;-1449.647;58.63758
 569.63;-2165.842;-2258.828;-2300.313;92.98622
 569.96;-1537.529;-1688.807;-1565.649;151.27838
 570.29;-2013.572;-2139.096;-2011.655;125.52459
 570.62;-1711.618;-1854.716;-1656.994;143.09835
 570.95; -480.960; -661.374; -549.662;180.41433
 571.28; -208.932; -351.736; -253.325;142.80347
 571.61; -172.904; -272.098; -171.988;99.19432
 571.94;-2265.874;-2248.462;-2101.984;-17.41211
 572.27;-1944.863;-1997.807;-1819.649;52.94403
 572.60; -934.528;-1031.141; -856.649;96.61273
 572.93; -743.544; -819.791; -813.984;76.24707
 573.26;  477.089;  411.577;  433.678;65.51200
 573.59;  890.399;  888.600;  852.008; 1.79973
 573.92; 1257.044; 1227.289; 1406.672;29.75515
 574.25;  554.754;  577.911;  732.011;-23.15705
 574.58; -160.838; -149.831;   83.354;-11.00663
 574.91;  479.501;  372.496;  544.355;107.00426
 575.24;  537.805;  339.526;  605.018;198.27940
 575.57;  101.440; -137.108;   43.680;238.54807
 575.90; -882.268;-1052.400; -852.325;170.13136
 576.23; -590.973; -737.361; -610.330;146.38846
 576.56; -737.276; -790.725; -630.326;53.44904
 576.89;  376.413;  437.586;  526.677;-61.17338
 577.22; 3050.397; 3115.935; 3197.008;-65.53803
 577.55; 4081.091; 4074.241; 4094.678; 6.84976
 577.88; 4666.772; 4618.893; 4685.013;47.87834
 578.21; 1722.733; 1671.599; 1751.342;51.13340
 578.54;  683.726;  728.273;  865.341;-44.54619
 578.87;-1057.878; -991.791;-1007.651;-66.08626
 579.20; -520.557; -437.445; -435.986;-83.11281
 579.53;  121.369;  114.297;   85.671; 7.07181
 579.86; 1084.042; 1063.291; 1213.672;20.75107
 580.19;  921.112;  905.553; 1018.681;15.55930
 580.52; 1619.154; 1610.176; 1728.353; 8.97772
 580.85;   -9.531;  -68.804;   -8.649;59.27293
 581.18;  -74.886; -117.449;  -27.652;42.56339
 581.51;-1930.918;-1955.417;-1807.656;24.49907
 581.84;  275.735;  207.264;  411.009;68.47116
 582.17; -536.269; -632.399; -467.658;96.13000
 582.50;  439.340;  343.326;  479.334;96.01395
 582.83;-1056.327;-1098.340; -974.333;42.01259
 583.16; -117.250; -138.085;    3.677;20.83546
 583.49;  862.142;  803.855;  872.018;58.28757
 583.82; 1463.148; 1389.849; 1423.686;73.29914
 584.15; 1053.424;  989.575; 1036.345;63.84908
 584.48;  414.379;  358.954;  519.672;55.42522
 584.81;  284.424;  221.241;  373.012;63.18377
 585.14;  576.795;  446.870;  650.683;129.92531
 585.47;  647.107;  487.224;  702.347;159.88311
 585.80;  921.767;  833.564;  997.013;88.20283
 586.13; 1174.098; 1156.900; 1261.346;17.19875
 586.46; 4345.740; 4366.592; 4456.343;-20.85298
 586.79; 3763.070; 3730.262; 3856.342;32.80790
 587.12; 2737.774; 2759.891; 2875.680;-22.11689
 587.45;-1342.221;-1310.114;-1305.986;-32.10668
 587.78; -126.584;  -27.084;  -20.323;-99.49957
 588.11; -218.915; -125.086; -179.656;-93.82916
 588.44; 2512.421; 2572.577; 2707.345;-60.15569
 588.77; 1144.071; 1109.928; 1272.009;34.14327
 589.10; 1261.748; 1135.584; 1382.677;126.16369
 589.43; -820.565; -943.437; -848.654;122.87222
 589.76;-1245.291;-1352.377;-1231.995;107.08644
 590.09;-1094.034;-1171.965;-1079.338;77.93126
 590.42;-1421.986;-1447.347;-1332.332;25.36124
 590.75; -351.873; -298.463; -283.317;-53.41007
 591.08;-1034.843; -962.160; -933.647;-72.68282
 591.40;-1198.547;-1204.789;-1210.651; 6.24231
 591.73; -144.544; -210.792; -103.984;66.24809
 592.06; 1464.122; 1358.876; 1482.016;105.24673
 592.39;  751.729; 1221.603; 1445.341;-469.87340
 592.72;-1451.290; -969.378; -864.661;-481.91220
 593.05;-2098.918;-1627.416;-1566.323;-471.50195
 593.38; -281.902; -381.100; -346.654;99.19806
 593.71;  813.119;  658.212;  795.682;154.90761
 594.04;  494.800;  360.198;  380.017;134.60184
 594.37; -390.574; -472.094; -453.988;81.51983
 594.70;-1372.655;-1259.679;-1330.998;-112.97618
 595.03; -308.626; -189.042; -114.995;-119.58363
 595.36;-1214.502;-1058.168;-1085.312;-156.33384
 595.69;  349.808;  338.189;  367.685;11.61920
 596.02;-1031.973;-1028.027;-1041.663;-3.94555
 596.35;  775.686;  566.980;  653.336;208.70648
 596.68; -676.932; -830.402; -771.991;153.47014
 597.00;  902.408;  755.258;  894.343;147.15008
 597.33; 3021.791; 3102.540; 3182.016;-80.74851
 597.66; 5941.150; 6020.847; 6090.019;-79.69712
 597.99; 3910.760; 4011.572; 3976.012;-100.81146
 598.32; 2956.080; 2989.586; 3051.343;-33.50604
 598.65;  724.737;  699.595;  831.009;25.14225
 598.98; 2724.397; 2706.602; 2922.341;17.79497
 599.31;  166.447;  163.217;  315.681; 3.22971
 599.64;  462.138;  433.859;  587.684;28.27906
 599.97;-1331.864;  892.862;  924.684;-2224.72604
 600.30;-1779.892;  437.223;  448.014;-2217.11519
 600.63;-2146.970;  205.636;   71.337;-2352.60609
 600.96; -661.968; -588.033; -616.663;-73.93466
 601.29;  -87.574;  -21.427;    3.678;-66.14718
 601.61;   98.409;   85.923;  197.010;12.48648
 601.94;-1192.264;-1249.737;-1145.324;57.47354
 602.27;  863.107;  722.891;  840.680;140.21610
 602.60; 1624.128; 1436.203; 1552.016;187.92463
 602.93; 3940.131; 3830.200; 3942.350;109.93007
 603.26; 1957.435; 1993.896; 2068.013;-36.46111
 603.59; 2929.433; 3006.565; 3116.346;-77.13221
 603.92; 1771.469; 1866.195; 1883.017;-94.72638
 604.25; 3026.107; 3044.224; 3041.680;-18.11655
 604.58; 1049.425; 1077.906; 1063.345;-28.48085
 604.91; 1377.170; 1328.827; 1421.688;48.34236
 605.23;  811.180;  788.483;  884.356;22.69713
 605.56;11903.480; 9141.850; 9171.685;2761.62975
 605.89;14577.192;11834.138;11930.358;2743.05463
 606.22;13784.841;11059.156;11190.022;2725.68488
 606.55; 2899.100; 2868.565; 3072.346;30.53514
 606.88;-1110.245;-1121.423;-1018.989;11.17833
 607.21;-1234.236;-1239.433;-1174.988; 5.19670
 607.54;-1835.231;-1751.104;-1641.320;-84.12710
 607.87;-2071.581;-2016.087;-1914.989;-55.49447
 608.20; -764.905; -740.097; -617.655;-24.80772
 608.52;-1127.556;-1214.446;-1152.319;86.88992
 608.85;-1071.637;-1139.364;-1101.330;67.72656
 609.18;-2765.018;-2792.648;-2831.336;27.62991
 609.51; -220.960; -245.375; -279.995;24.41501
 609.84;-1247.599;-1280.735;-1290.991;33.13613
 610.17;  276.085;  244.914;  276.677;31.17084
 610.50;  523.806;  503.858;  574.684;19.94879
 610.83; 4155.818; 4136.512; 4259.353;19.30595
 611.15; 4030.124; 3962.873; 4067.349;67.25115
 611.48; 1799.100; 1749.231; 1900.013;49.86916
 611.81;  597.436;  548.228;  621.013;49.20793
 612.14; -325.879; -358.456; -201.651;32.57700
 612.47;  387.133;  434.532;  461.350;-47.39918
 612.80;  968.469;  972.195; 1095.351;-3.72672
 613.13; 2131.423; 2140.909; 2194.678;-9.48630
 613.46; 1562.070; 1590.929; 1745.342;-28.85843
 613.78; -649.565; -543.770; -485.320;-105.79581
 614.11;-1063.572; -957.429; -932.988;-106.14276
 614.44; -415.603; -433.731; -456.325;18.12830
 614.77;  516.026;  445.307;  522.003;70.71942
 615.10;  688.040;  610.293;  666.005;77.74698
 615.43;  325.122;  326.876;  341.682;-1.75395
 615.76;  -21.524;   -7.146;  -43.648;-14.37808
 616.09; -518.249; -562.419; -466.656;44.16948
 616.41;  132.773;   49.559;  243.680;83.21406
 616.74; -108.875; -149.460;   13.349;40.58517
 617.07;  402.058;  430.274;  441.674;-28.21626
 617.40; -804.626; -776.708; -768.995;-27.91832
 617.73; -318.597; -325.071; -376.658; 6.47320
 618.06;-1234.886;-1263.783;-1197.319;28.89774
 618.39; -915.217; -939.785; -938.652;24.56815
 618.71;  183.761;  152.237;  233.012;31.52391
 619.04; 1849.749; 1783.916; 1857.677;65.83274
 619.37; 1403.717; 1338.949; 1409.340;64.76808
 619.70;  904.744;  804.921;  839.343;99.82355
 620.03;  188.807;  165.524;  158.018;23.28314
 620.36;  -77.849;  -56.487;  -91.647;-21.36174
 620.69; -852.473; -807.530; -824.309;-44.94333
 621.01;-2151.786;-2117.884;-2133.973;-33.90215
 621.34;-1283.177;-1295.493;-1244.647;12.31581
 621.67;-2112.187;-2055.816;-2028.981;-56.37093
 622.00; -677.872; -599.464; -556.317;-78.40837
 622.33; -672.924; -589.411; -566.990;-83.51352
 622.66;  440.381;  533.618;  584.339;-93.23736
 622.98; -115.600;  -47.401;  -32.992;-68.19891
 623.31;  131.460;  268.204;  259.683;-136.74340
 623.64;  857.122;  980.876;  947.349;-123.75361
 623.97; 1907.740; 2021.925; 2097.343;-114.18495
 624.30; 1415.096; 1494.902; 1580.346;-79.80602
 624.63;  167.824;  250.507;  403.020;-82.68316
 624.95;-1024.172; -960.831; -855.979;-63.34030
 625.28;  656.776;  760.222;  931.347;-103.44512
 625.61; 1906.121; 1956.544; 2051.682;-50.42300
 625.94; 3290.865; 3355.465; 3468.692;-64.60013
 626.27; 2676.170; 2599.160; 2747.688;77.01073
 626.60; 1701.437; 1656.228; 1821.013;45.20896
 626.92;  133.787;   99.545;  193.015;34.24197
 627.25;  180.789;  195.208;  234.682;-14.41892
 627.58;  576.453;  592.211;  691.682;-15.75769
 627.91; 5735.814; 5663.850; 5880.685;71.96308
 628.24; 4736.796; 4684.202; 4846.683;52.59436
 628.56; 5401.063; 5348.602; 5464.008;52.46061
 628.89;  358.364;  394.635;  360.004;-36.27106
 629.22; 2131.774; 2148.558; 2131.347;-16.78424
 629.55;  789.159;  810.838;  745.020;-21.67942
 629.88; 2059.088; 2152.244; 2076.345;-93.15535
 630.21;  869.728; 1007.604;  856.008;-137.87612
 630.53; 1180.112; 1241.886; 1191.014;-61.77403
 630.86;  988.789;  992.209;  950.349;-3.42028
 631.19;  324.440;  290.891;  354.680;33.54875
 631.52;  -76.204;  -69.798;  -77.317;-6.40598
 631.85;   16.489;   10.509;  115.353; 5.98010
 632.17;-1101.826;-1033.844;-1027.978;-67.98247
 632.50; -120.545;  -45.123;   11.349;-75.42198
 632.83; -726.289; -703.711; -720.661;-22.57784
 633.16;  856.747;  801.918;  937.010;54.82934
 633.49;  687.450;  603.882;  656.348;83.56815
 633.81; 1769.773; 1667.892; 1811.680;101.88107
 634.14; 2176.439; 2175.559; 2179.680; 0.88039
 634.47; 1710.448; 1724.216; 1762.681;-13.76824
 634.80;  281.789;  342.209;  248.016;-60.41960
 635.13; -394.865; -418.804; -465.316;23.93960
 635.45;  -61.173;  -60.163; -127.313;-1.01037
 635.78; 1337.160; 1399.837; 1358.687;-62.67670
 636.11; 1403.490; 1520.840; 1426.020;-117.35017
 636.44; 1022.138; 1181.193; 1108.351;-159.05461
 636.76; -881.898; -716.104; -811.654;-165.79445
 637.09;   90.438;  285.894;  220.680;-195.45567
 637.42; -330.579; -194.089; -280.656;-136.49038
 637.75; 1086.037; 1131.962; 1094.338;-45.92513
 638.08;  -97.599;  -81.069; -139.991;-16.53020
 638.40;  494.442;  554.223;  503.681;-59.78050
 638.73;-1142.216; -996.786;-1033.652;-145.42981
 639.06; -566.541; -447.461; -369.984;-119.08048
 639.39; -626.282; -505.719; -369.327;-120.56321
 639.71;-1131.339;-1029.661; -903.667;-101.67858
 640.04;  643.442;  757.889;  806.681;-114.44696
 640.37;  953.109; 1031.223; 1016.681;-78.11393
 640.70; 1010.775; 1197.889; 1130.347;-187.11424
 641.03;-1059.558; -934.110;-1001.320;-125.44787
 641.35;-1247.558;-1099.444;-1132.653;-148.11484
 641.68;  387.441;  400.557;  442.680;-13.11515
 642.01; -517.892; -481.443; -440.320;-36.44878
 642.34;  235.774;  142.557; 1240.680;93.21758
 642.66;-1124.226;-1170.110; -131.320;45.88394
 642.99; 1051.774; 1026.557; 2095.680;25.21697
 643.32; -129.559;  -10.776;  -51.320;-118.78333
 643.65;  574.441;  644.891;  678.680;-70.45030
 643.97;-1122.893;-1125.776;-1066.986; 2.88273
 644.30; -733.893; -796.109; -669.653;62.21576
 644.63;-1260.560;-1267.775;-1239.653; 7.21546
 644.96;-2100.227;-2043.109;-2056.986;-57.11818
 645.28;-2385.894;-2259.442;-2261.320;-126.45182
 645.61;-1438.560;-1354.775;-1332.653;-83.78546
 645.94;-1015.561; -972.441; -955.986;-43.11909
 646.27;  420.106;  431.225;  361.013;-11.11940
 646.59; -303.227; -343.774; -335.653;40.54697
 646.92;  131.439;  101.226;  163.680;30.21333
 647.25;-2091.894;-2163.774;-2025.987;71.87969
 647.58; -839.561; -882.774; -748.987;43.21272
 647.90;-1370.561;-1366.774;-1349.320;-3.78758
 648.23;  680.105;  687.560;  647.680;-7.45455
 648.56; -363.228; -299.107; -383.987;-64.12152
 648.89;  193.105;  218.227;  206.680;-25.12182
 649.21;-1502.229;-1379.773;-1458.320;-122.45546
 649.54; -353.562; -373.106; -369.653;19.54424
 649.87;  -98.896;  -63.106; -140.653;-35.78940
 650.20; 1534.104; 1496.894; 1571.013;37.21030
 650.52;  484.771;  567.561;  514.680;-82.79001
 650.85;  307.104;  377.228;  429.680;-70.12364
 651.18;-1095.230;-1004.772;-1044.653;-90.45728
 651.51; -965.230; -878.439; -932.653;-86.79092
 651.83;-1766.230;-1662.439;-1849.654;-103.79122
 652.16;-1949.563;-1903.105;-1981.654;-46.45819
 652.49;-2168.564;-2100.438;-2098.987;-68.12516
 652.81; -914.897; -854.105; -801.987;-60.79213
 653.14;-1021.897; -909.771; -940.987;-112.12577
 653.47; -514.897; -459.771; -465.987;-55.12607
 653.80;  380.103;  392.562;  395.680;-12.45971
 654.12;  872.769;  925.229;  967.346;-52.46001
 654.45; 2389.436; 2433.229; 2453.680;-43.79365
 654.78; 1316.769; 1311.229; 1446.346; 5.53938
 655.10; 3398.102; 3314.896; 3461.680;83.20574
 655.43;  281.102;  245.563;  407.346;35.53877
 655.76;  -33.565;  -33.437;   51.680;-0.12820
 656.09;-2275.232;-2322.770;-2207.654;47.53817
 656.41; -176.899; -231.770; -197.987;54.87120
 656.74;-1117.232;-1143.770;-1120.654;26.53756
 657.07; -904.566; -885.770; -853.320;-18.79608
 657.39;-1627.899;-1567.769;-1530.987;-60.12971
 657.72; -373.566; -297.103; -282.321;-76.46335
 658.05; 1234.434; 1301.231; 1278.679;-66.79699
 658.38; 1180.100; 1243.231; 1215.013;-63.13062
 658.70;  813.767;  796.231;  849.013;17.53574
 659.03;-1003.233; -972.102; -945.987;-31.13123
 659.36;  247.433;  290.565;  363.346;-43.13153
 659.68;   97.433;  129.565;  203.679;-32.13184
 660.01;  468.433;  531.232;  535.346;-62.79881
 660.34;-1925.567;-1903.768;-1925.321;-21.79911
 660.66;  282.099;  391.565;  304.013;-109.46608
 660.99;  732.433;  866.232;  739.013;-133.79972
 661.32; 2731.099; 2923.899; 2758.013;-192.80002
 661.64;  148.432;  351.233;  122.346;-202.80032
 661.97; 1815.099; 1930.233; 1845.013;-115.13396
 662.30;  886.765;  903.233;  913.013;-16.46760
 662.63; 2298.765; 2319.233; 2440.679;-20.46790
 662.95; 1773.098; 1678.900; 2062.013;94.19846
 663.28; 1843.098; 1765.233; 2163.012;77.86482
 663.61;  939.431;  814.234; 1136.012;125.19785
 663.93; 1175.431; 1203.234; 1208.012;-27.80245
 664.26;  602.764;  639.900;  588.346;-37.13609
 664.59;  814.098;  894.234;  834.679;-80.13639
 664.91; -692.903; -287.099; -694.988;-405.80336
 665.24; 1748.764; 2054.568; 1687.679;-305.80366
 665.57; 1907.430; 2198.568; 1844.012;-291.13730
 665.89;  951.097;  900.901;  946.346;50.19573
 666.22;-1670.903;-1582.432;-1631.321;-88.47124
 666.55;-1066.903; -993.765;-1011.321;-73.13821
 666.87; 1081.763; 1158.235; 1036.012;-76.47185
 667.20;  935.430;  938.235;  959.012;-2.80548
 667.53;-1106.237;-1110.098;-1085.321; 3.86088
 667.85;-2180.904;-2233.098;-2115.321;52.19391
 668.18; -435.237; -496.098; -425.654;60.86027
 668.51;  595.762;  543.902;  636.346;51.85997
 668.83;  935.762;  939.903; 1013.012;-4.14033
 669.16;  215.095;  307.569;  305.012;-92.47397
 669.49;  123.762;  242.236;  189.679;-118.47427
 669.81;  287.429;  378.903;  278.679;-91.47458
 670.14; -877.238; -883.763; -891.655; 6.52512
 670.47;  207.428;  162.237;  201.679;45.19148
 670.79;-1027.905;-1078.096; -998.655;50.19118
 671.12; -611.905; -584.096; -574.988;-27.80912
 671.45;-1678.239;-1591.763;-1639.988;-86.47609
 671.77;-1462.906;-1353.763;-1394.321;-109.14307
 672.10;  989.094; 1013.904;  970.345;-24.81004
 672.43; 1058.427; 1061.571;  995.012;-3.14367
 672.75; 1056.760; 1069.238; 1031.345;-12.47731
 673.08; 1038.427; 1044.905; 1081.012;-6.47761
 673.41; 1567.094; 1543.905; 1634.345;23.18875
 673.73; 1942.760; 1896.572; 2053.012;46.18845
 674.06; -293.907; -329.762; -224.321;35.85481
 674.38;-1093.240;-1141.095; -965.988;47.85451
 674.71;-1145.907; -979.428; -934.655;-166.47913
 675.04; -174.907;   38.239;  122.345;-213.14610
 675.36;  472.759;  782.572;  658.012;-309.81307
 675.69;  107.092;  222.906;  136.012;-115.81337
 676.02; -300.574; -144.094; -283.655;-156.48034
 676.34;  837.426;  867.239;  953.678;-29.81398
 676.67;  134.092;  101.906;  232.678;32.18572
 677.00; 3668.759; 3533.240; 3795.345;135.51875
 677.32; 1810.425; 1773.573; 1920.678;36.85178
 677.65; 2314.092; 2356.907; 2467.678;-42.81519
 677.97;-1259.242;-1166.760;-1160.655;-92.48216
 678.30;  209.091;  215.240;  300.345;-6.14913
 678.63; 1644.424; 1672.907; 1698.345;-28.48277
 678.95; 1478.758; 1532.574; 1516.678;-53.81641
 679.28; -267.576; -170.426; -195.322;-97.15004
 679.61; -777.576; -683.759; -701.322;-93.81701
 679.93;-1613.576;-1554.759;-1534.988;-58.81732
 680.26; -256.243; -214.092; -167.655;-42.15095
 680.58;-2268.576;-2235.425;-2235.989;-33.15126
 680.91;  957.090; 1023.575; 1036.011;-66.48490
 681.24;  910.423; 1019.575;  918.011;-109.15187
 681.56; 1479.423; 1552.575; 1604.011;-73.15217
 681.89;-1084.577;-1173.091;-1017.655;88.51419
 682.21;-1321.911;-1496.424;-1238.989;174.51389
 682.54; -578.577; -699.424; -495.322;120.84692
 682.87;-1005.244; -938.757; -864.989;-66.48672
 683.19;-1594.911;-1438.757;-1371.322;-156.15369
 683.52; -473.578; -418.424; -283.989;-55.15399
 683.84;  247.089;  269.910;  379.345;-22.82096
 684.17;  591.755;  639.576;  664.011;-47.82126
 684.50;-1527.578;-1422.757;-1487.655;-104.82157
 684.82;-2260.245;-2154.090;-2183.322;-106.15520
 685.15;  817.421;  854.910;  819.345;-37.48884
 685.47; 1651.088; 1693.244; 1684.011;-42.15581
 685.80; 1827.088; 1903.577; 1896.678;-76.48945
 686.13; -380.912; -335.089; -264.322;-45.82308
 686.45; -371.912; -292.089; -300.322;-79.82339
 686.78; 1715.754; 1743.578; 1812.678;-27.82369
 687.10;  892.421; 1004.245;  996.344;-111.82399
 687.43;  846.420;  905.245;  975.344;-58.82430
 687.76;-1362.913;-1264.088;-1284.656;-98.82460
 688.08;-1554.913;-1456.088;-1498.656;-98.82490
 688.41;-2247.913;-2175.422;-2155.656;-72.49187
 688.73; -724.914; -600.421; -550.989;-124.49218
 689.06; -756.247; -712.421; -592.989;-43.82581
 689.39; -165.914;  -95.754;  -44.656;-70.15945
 689.71;-1633.914;-1691.088;-1715.989;57.17358
 690.04; -732.914; -774.087; -811.656;41.17327
 690.36;   67.086;  -20.087; -113.656;87.17297
 690.69; 1355.419; 1299.913; 1279.678;55.50600
 691.01; -138.248; -167.754; -198.989;29.50570
 691.34; -422.248; -345.420; -427.656;-76.82794
 691.67;-2071.915;-1954.087;-2052.323;-117.82824
 691.99;  -90.915;  -34.420;  -83.656;-56.49521
 692.32; -755.582; -773.086; -733.323;17.50448
 692.64;  169.085;  134.914;  197.344;34.17085
 692.97;-1356.582;-1322.086;-1346.656;-34.49612
 693.29;-1241.249;-1196.419;-1210.656;-44.82976
 693.62;-2188.916;-2181.752;-2250.989;-7.16340
 693.95;-1579.583;-1610.419;-1619.656;30.83630
 694.27; -757.249; -824.419; -844.656;67.16933
 694.60; -313.250; -384.419; -338.656;71.16903
 694.92; -608.583; -622.085; -553.989;13.50206
 695.25;   50.417;   11.915;   98.011;38.50175
 695.57; 7413.750; 7334.915; 7347.011;78.83478
 695.90; 7039.083; 6953.915; 6922.011;85.16781
 696.22; 5284.083; 5281.915; 5233.011; 2.16751
 696.55;-1377.584;-1310.084;-1337.323;-67.49946
 696.88;-1810.251;-1667.084;-1710.323;-143.16643
 697.20;  515.749;  611.916;  591.677;-96.16673
 697.53; 1431.082; 1581.249; 1467.010;-150.16704
 697.85; 1542.416; 1619.250; 1535.344;-76.83401
 698.18;   95.415;  208.583;  101.344;-113.16765
 698.50;-1360.918;-1263.083;-1190.990;-97.83462
 698.83;-1585.918;-1507.750;-1392.656;-78.16825
 699.15;-1422.918;-1383.750;-1290.990;-39.16856
 699.48;  938.081;  884.584;  911.677;53.49781
 699.80; 2297.415; 2242.584; 2252.010;54.83084
 700.13; 3065.081; 3015.917; 3066.344;49.16387
 700.46; 1383.414; 1426.251; 1486.344;-42.83644
 700.78; 2883.414; 2892.918; 2892.344;-9.50341
 701.11; 2215.414; 2278.584; 2203.344;-63.17038
 701.43; 1250.081; 1300.918; 1189.344;-50.83735
 701.76;  347.414;  380.918;  316.677;-33.50432
 702.08;  -74.253;  -54.082;  -65.656;-20.17129
 702.41;  841.413;  916.585;  955.677;-75.17159
 702.73;  182.413;  308.252;  324.344;-125.83856
 703.06; -185.253;  -37.081;   -0.990;-148.17220
 703.38; 1027.080; 1126.252; 1093.677;-99.17250
 703.71;  268.413;  385.252;  396.010;-116.83947
 704.03; 2206.746; 2227.252; 2129.010;-20.50644
 704.36; 2218.079; 2226.253; 2150.343;-8.17341
 704.68; 3037.412; 3031.586; 2858.343; 5.82629
 705.01;  241.079;  276.586;  210.677;-35.50735
 705.33;-1220.921;-1226.414;-1270.323; 5.49235
 705.66;  463.745;  533.920;  563.677;-70.17462
 705.99; 3094.412; 3152.587; 3156.010;-58.17493
 706.31; 3478.078; 3544.587; 3562.677;-66.50856
 706.64;  280.412;  301.254;  312.677;-20.84220
 706.96; -581.589; -398.746; -446.323;-182.84251
 707.29; -725.255; -498.746; -624.657;-226.50948
 707.61; -550.256; -368.079; -431.657;-182.17645
 707.94;-1427.922;-1346.079;-1374.990;-81.84342
 708.26;-1175.256;-1081.079;-1097.990;-94.17705
 708.59; -543.923; -376.412; -535.657;-167.51069
 708.91;  -30.923;   22.255;  -58.657;-53.17766
 709.24;-1567.590;-1519.078;-1656.324;-48.51130
 709.56;-1742.923;-1696.745;-1754.657;-46.17827
 709.89;-1644.923;-1503.745;-1652.990;-141.17857
 710.21;    2.743;  132.589;   74.343;-129.84554
 710.54;  803.076;  867.922;  745.343;-64.84584
 710.86; 2229.743; 2198.589; 2170.676;31.15385
 711.19; 2758.076; 2749.923; 2648.010; 8.15355
 711.51; 2978.743; 3021.589; 2953.010;-42.84675
 711.84; 1579.742; 1683.256; 1518.343;-103.51372
 712.16; 1006.742; 1108.256; 1011.343;-101.51403
 712.49; -255.591; -202.410; -247.324;-53.18100
 712.81;  781.409;  908.590;  891.676;-127.18130
 713.14;  531.409;  606.923;  572.676;-75.51494
 713.46; 1368.742; 1391.924; 1376.010;-23.18191
 713.79;  437.408;  378.924;  328.343;58.48446
 714.11; -338.259; -437.076; -425.324;98.81749
 714.43; -959.259;-1015.743;-1109.991;56.48385
 714.76; -748.926; -772.409; -774.657;23.48355
 715.08; -491.592; -427.742; -520.657;-63.85009
 715.41; 1087.741; 1133.258; 1143.009;-45.51706
 715.73; -628.259; -552.742; -595.991;-75.51737
 716.06;  -47.926;   29.258;   48.676;-77.18434
 716.38; -455.593; -259.742; -302.324;-195.85131
 716.71; 1041.407;  861.258;  720.009;180.14839
 717.03;  852.073;  679.592;  552.343;172.48142
 717.36;  161.407; -143.408; -223.657;304.81445
 717.68;  330.740;  324.926;  313.343; 5.81415
 718.01;  367.073;  279.926;  336.676;87.14718
 718.33;  996.739;  947.593;  907.009;49.14687
 718.66; -275.927; -265.407; -229.324;-10.52010
 718.98; -113.928;  -83.074; -152.991;-30.85373
 719.31;-1690.928;-1609.407;-1644.324;-81.52070
 719.63;-2206.261;-2089.073;-2190.324;-117.18767
 719.95;-2965.928;-2771.073;-2884.324;-194.85464
 720.28;-2844.595;-2681.073;-2675.324;-163.52161
 720.60;-1693.262;-1578.073;-1474.991;-115.18858
 720.93;-2379.928;-2318.740;-2221.991;-61.18889
 721.25;-1266.595;-1235.073;-1257.658;-31.52252
 721.58;-2241.929;-2212.739;-2295.991;-29.18949
 721.90; -479.262; -362.406; -111.991;-116.85646
 722.23;-1561.929;-1388.406;-1148.658;-173.52343
 722.55; -423.929; -215.405;   52.676;-208.52374
 722.88; -862.596; -703.405; -758.658;-159.19071
 723.20; 1564.071; 1592.595; 1657.009;-28.52434
 723.52; 1520.737; 1520.595; 1323.342; 0.14202
 723.85; 1863.404; 1826.262; 1662.342;37.14171
 724.17;  569.403;  709.262;  430.342;-139.85859
 724.50; 1862.070; 1937.262; 1884.342;-75.19223
 724.82; 1208.070; 1289.262; 1213.342;-81.19253
 725.15;  347.403;  363.929;  335.342;-16.52617
 725.47;-1007.931; -890.071; -979.991;-117.85980
 725.80; -867.597; -724.071; -787.658;-143.52677
 726.12; -990.931; -838.737; -946.991;-152.19374
 726.44;  -39.931;   58.596;   87.009;-98.52738
 726.77; -492.931; -455.403; -400.325;-37.52768
 727.09;  513.069;  492.263;  645.009;20.80535
 727.42; -908.931; -907.403; -803.658;-1.52829
 727.74; -210.598; -234.736; -331.658;24.13807
 728.07;  572.735;  637.264;  257.009;-64.52890
 728.39;  749.735;  818.264;  396.675;-68.52920
 728.71;  503.401;  624.931;  389.675;-121.52950
 729.04;  -10.266;   37.931;   45.009;-48.19647
 729.36; -233.932; -108.402; -144.325;-125.53011
 729.69; -158.266;  -49.069;  -84.991;-109.19708
 730.01; -911.266; -806.735; -859.991;-104.53072
 730.34;  529.734;  496.598;  512.675;33.13565
 730.66;  263.400;  199.598;  211.342;63.80201
 730.98;  168.400;   54.599;  141.342;113.80171
 731.31; -323.933; -334.401; -339.325;10.46807
 731.63; -944.267; -837.068; -901.992;-107.19890
 731.96; -356.600; -186.734; -352.325;-169.86587
 732.28;-1384.934;-1251.068;-1342.658;-133.86617
 732.60;-1677.934;-1605.067;-1671.658;-72.86648
 732.93;-2377.934;-2277.734;-2353.325;-100.20012
 733.25;-2630.934;-2577.734;-2636.992;-53.20042
 733.58;-1074.268; -978.400;-1069.325;-95.86739
 733.90;-1882.601;-1743.733;-1855.992;-138.86769
 734.22;-1002.935; -830.067; -924.992;-172.86800
 734.55;  -49.601;   53.600;   38.008;-103.20163
 734.87; 1570.065; 1564.267; 1645.008; 5.79806
 735.20; 2399.732; 2419.934; 2466.008;-20.20224
 735.52;  783.065;  877.267;  819.342;-94.20254
 735.84; -348.602; -187.399; -315.325;-161.20285
 736.17;-1978.602;-1847.732;-1927.658;-130.86982
 736.49;-2516.936;-2463.732;-2511.658;-53.20345
 736.82;-2406.602;-2389.732;-2426.325;-16.87042
 737.14;-2070.269;-2025.065;-2107.659;-45.20406
 737.46;-2438.603;-2396.065;-2413.992;-42.53770
 737.79;-2470.270;-2454.398;-2484.992;-15.87133
 738.11;-2091.936;-2145.065;-2109.659;53.12836
 738.44;-1278.937;-1321.398;-1301.325;42.46139
 738.76; -764.603; -793.064; -704.325;28.46109
 739.08; -131.604;  -79.731;  -65.659;-51.87255
 739.41;  719.396;  817.603;  819.675;-98.20618
 739.73;  363.730;  568.936;  498.341;-205.20649
 740.05; -988.271; -777.397; -843.325;-210.87346
 740.38;-2715.937;-2496.397;-2632.992;-219.54043
 740.70;-1835.938;-1729.730;-1818.659;-106.20740
 741.03;-1875.938;-1833.063;-1899.992;-42.87437
 741.35;-1396.271;-1404.730;-1371.659; 8.45866
 741.67;-2369.938;-2464.396;-2467.325;94.45836
 742.00;-1849.605;-1916.396;-1877.325;66.79139
 742.32; 2785.395; 2803.604; 2824.341;-18.20892
 742.64; 3649.728; 3805.271; 3870.341;-155.54255
 742.97; 4083.395; 4309.938; 4218.341;-226.54286
 743.29;  591.395;  729.271;  652.008;-137.87649
 743.61;  651.394;  773.271;  619.008;-121.87680
 743.94;  508.394;  487.938;  520.008;20.45623
 744.26;  116.394;  154.271;   42.008;-37.87740
 744.59;  -27.939;   69.272;   56.008;-97.21104
 744.91; -687.606; -563.062; -632.659;-124.54468
 745.23; -863.940; -745.061; -761.659;-118.87831
 745.56;-1881.607;-1765.728;-1893.992;-115.87862
 745.88; -300.607; -110.394; -290.992;-190.21225
 746.20;  833.727;  922.939;  874.008;-89.21256
 746.53; 1016.060; 1111.273; 1134.674;-95.21286
 746.85; 1212.393; 1273.606; 1288.674;-61.21316
 747.17; -174.941;  -62.727;  -93.326;-112.21347
 747.50;  808.726;  856.273;  806.674;-47.54710
 747.82; -157.941; -143.060;  -80.659;-14.88074
 748.14;-1053.608;-1038.060; -991.326;-15.54771
 748.47;-2048.608;-2078.060;-1946.326;29.45199
 748.79;-2549.275;-2456.393;-2463.326;-92.88165
 749.11;-2245.275;-2141.060;-2068.326;-104.21529
 749.44;-2802.275;-2649.393;-2681.993;-152.88226
 749.76;-2447.942;-2372.726;-2310.659;-75.21589
 750.08;-2462.942;-2361.392;-2424.326;-101.54953
 750.41; -924.275; -884.726; -867.993;-39.54984
 750.73;-1572.276;-1573.725;-1555.326; 1.44986
 751.05; 1591.391; 1598.941; 1666.007;-7.55044
 751.38;  907.724; 1011.942;  988.674;-104.21741
 751.70;  911.057;  996.275; 1004.674;-85.21772
 752.02; -784.610; -709.392; -704.659;-75.21802
 752.35; -410.610; -429.058; -343.326;18.44834
 752.67; 4126.390; 4117.942; 4056.007; 8.44804
 752.99; 2644.723; 2634.942; 2584.674; 9.78107
 753.32; 2057.723; 2144.942; 2033.007;-87.21923
 753.64;-2276.610;-2124.057;-2180.326;-152.55287
 753.96; -868.277; -733.724; -768.326;-134.55317
 754.29; -957.611; -890.057; -904.993;-67.55348
 754.61;-1076.611;-1108.057;-1118.660;31.44622
 754.93; -368.611; -398.390; -424.326;29.77925
 755.26; 1056.056; 1070.277;  986.007;-14.22105
 755.58;  876.389;  965.944;  954.674;-89.55469
 755.90; -230.611; -191.723; -141.326;-38.88833
 756.23;-1013.945; -986.056; -809.993;-27.88863
 756.55;  135.722;  159.611;  295.007;-23.88893
 756.87; -244.278; -217.389; -124.326;-26.88924
 757.20;-1541.612;-1485.389;-1485.326;-56.22287
 757.52;-1358.945;-1318.389;-1328.326;-40.55651
 757.84;-1045.612; -922.055; -969.326;-123.55681
 758.16; -637.279; -544.722; -535.993;-92.55712
 758.49;-2191.946;-2100.388;-2080.660;-91.55742
 758.81;-1592.946;-1567.722;-1449.660;-25.22439
 759.13; -301.946; -214.055; -179.993;-87.89136
 759.46; 1742.054; 1835.279; 1869.007;-93.22500
 759.78; -277.280; -129.388; -187.327;-147.89197
 760.10;-1205.613;-1138.054;-1112.327;-67.55894
 760.43;-1508.947;-1475.721;-1436.993;-33.22591
 760.75;  844.053;  832.946;  960.673;11.10712
 761.07; 1108.386; 1040.279; 1204.340;68.10682
 761.39; 1471.719; 1465.946; 1641.007; 5.77318
 761.72; 1881.386; 1895.613; 1953.673;-14.22712
 762.04; 1720.052; 1814.280; 1815.007;-94.22743
 762.36;  982.386; 1043.280; 1025.673;-60.89440
 762.69; -467.281; -423.720; -405.660;-43.56137
 763.01; -802.615; -801.053; -794.327;-1.56167
 763.33; -785.615; -759.386; -750.993;-26.22864
 763.65;-1637.948;-1551.386;-1591.660;-86.56228
 763.98;  631.385;  720.614;  702.007;-89.22925
 764.30; -498.282; -417.719; -525.993;-80.56288
 764.62; -339.615; -302.386; -349.660;-37.22985
 764.94;-3012.616;-2909.719;-3004.993;-102.89682
 765.27;-2420.616;-2381.719;-2323.660;-38.89713
 765.59; -957.616; -879.718; -828.327;-77.89743
 765.91; 1127.051; 1205.948; 1280.006;-78.89773
 766.24; 1074.717; 1286.282; 1262.673;-211.56470
 766.56;  205.050;  400.615;  355.340;-195.56501
 766.88;  888.384;  985.949;  925.006;-97.56531
 767.20; 1988.050; 1952.949; 1985.340;35.10105
 767.53; 3585.050; 3502.616; 3532.006;82.43408
 767.85; 1506.383; 1505.283; 1562.340; 1.10044
 768.17; -138.617;  -98.717;  -97.327;-39.89986
 768.49;-1694.951;-1668.050;-1716.327;-26.90016
 768.82; -938.617; -895.717;-1006.327;-42.90047
 769.14; -213.284; -123.050; -190.327;-90.23410
 769.46; -113.284;    2.283;  -79.994;-115.56774
 769.78; -524.284; -403.050; -417.660;-121.23471
 770.11; -671.285; -531.050; -637.994;-140.23501
 770.43; -724.285; -575.049; -628.327;-149.23532
 770.75; -692.618; -622.716; -707.994;-69.90229
 771.07; -165.618; -168.049; -175.994; 2.43074
 771.40; 1224.715; 1283.284; 1249.006;-58.56956
 771.72; 1868.048; 1945.284; 1920.339;-77.23653
 772.04;  737.381;  877.951;  797.006;-140.57017
 772.36; -370.619; -307.049; -268.661;-63.57047
 772.69; -909.286; -880.382; -844.661;-28.90411
 773.01;  -81.286; -104.048;  -71.994;22.76226
 773.33;   46.714;    1.619;  -76.994;45.09529
 773.65; -621.620; -594.715; -671.994;-26.90502
 773.98; -771.953; -699.714; -797.661;-72.23865
 774.30;-1044.953; -941.714; -980.327;-103.23896
 774.62; -187.953;  -93.714; -149.994;-94.23926
 774.94;  229.713;  306.286;  349.673;-76.57290
 775.27;-1023.287; -972.047; -925.327;-51.23987
 775.59;-1489.621;-1452.380;-1389.327;-37.24017
 775.91; -170.287; -141.380; -112.661;-28.90714
 776.23; 3093.713; 3163.287; 3199.339;-69.57411
 776.55; 2026.379; 2143.287; 2136.339;-116.90775
 776.88; 2232.712; 2289.620; 2350.339;-56.90805
 777.20; -683.955; -633.713; -631.661;-50.24169
 777.52; -221.288; -220.379; -165.328;-0.90866
 777.84;-3220.288;-3152.713;-3220.994;-67.57563
 778.17;-2132.622;-2035.379;-2091.661;-97.24260
 778.49;-1556.289;-1442.712;-1489.994;-113.57624
 778.81; -889.622; -623.045; -580.661;-266.57654
 779.13;-1334.955;-1119.712;-1112.994;-215.24351
 779.45; -739.622; -492.712; -511.328;-246.91048
 779.78;-1338.622;-1226.712;-1330.328;-111.91078
 780.10;-1377.623;-1213.712;-1245.328;-163.91109
 780.42;-1651.956;-1485.045;-1444.994;-166.91139
 780.74; -305.956; -121.378;  -50.328;-184.57836
 781.06; -191.290;  -79.378;  -46.994;-111.91200
 781.39; 2446.043; 2579.622; 2565.672;-133.57897
 781.71; 1431.043; 1507.956; 1489.339;-76.91260
 782.03; 4310.043; 4429.623; 4396.339;-119.57957
 782.35; 2012.376; 2169.956; 2055.005;-157.57988
 782.67; 1886.710; 2160.956; 1992.339;-274.24685
 783.00;-2116.624;-1846.710;-1996.328;-269.91382
 783.32;-2869.957;-2647.043;-2703.661;-222.91412
 783.64;-3237.958;-3102.043;-3131.661;-135.91442
 783.96; -920.624; -764.710; -746.661;-155.91473
 784.28; -554.291; -527.376; -556.328;-26.91503
 784.61; 3047.375; 2997.957; 3060.005;49.41800
 784.93; 1409.708; 1309.291; 1324.005;100.41769
 785.25; 1489.708; 1440.624; 1540.339;49.08406
 785.57;-1073.625;-1066.709;-1008.661;-6.91625
 785.89;  595.041;  591.291;  650.005; 3.75012
 786.22;  824.375;  786.625;  854.672;37.74981
 786.54;  111.708;  111.625;  165.672; 0.08284
 786.86;-1368.959;-1369.375;-1304.328; 0.41587
 787.18;-1063.626;-1062.375; -995.995;-1.25110
 787.50;  282.374;  271.292;  297.005;11.08193
 787.82;  863.040;  906.292;  946.338;-43.25170
 788.15;  115.707;  220.626;  197.005;-104.91867
 788.47; -819.627; -795.041; -722.328;-24.58564
 788.79; -360.293; -389.707; -271.662;29.41405
 789.11; 1142.373; 1022.626; 1226.338;119.74708
 789.43; 1435.706; 1299.293; 1404.672;136.41345
 789.75;  880.040;  814.626;  858.672;65.41314
 790.08; -835.961; -799.373; -862.662;-36.58716
 790.40;-1257.961;-1174.040;-1103.662;-83.92080
 790.72;-1243.294;-1187.373;-1136.662;-55.92110
 791.04; -332.294; -313.040; -166.662;-19.25474
 791.36; -236.961; -200.039; -153.328;-36.92171
 791.68; -280.295; -299.039; -189.328;18.74466
 792.01; -476.295; -483.706; -501.995; 7.41102
 792.33; -673.628; -637.706; -658.328;-35.92262
 792.65;  249.705;  350.961;  264.005;-101.25625
 792.97; -255.629; -178.372; -170.995;-77.25656
 793.29;  454.038;  509.628;  509.671;-55.59020
 793.61;  387.038;  465.962;  484.671;-78.92383
 793.94; -295.296; -175.038; -235.662;-120.25747
 794.26;  240.371;  379.295;  335.671;-138.92444
 794.58;-1444.629;-1366.038;-1413.329;-78.59141
 794.90; -208.963; -121.371; -119.662;-87.59171
 795.22;  209.370;  370.629;  234.338;-161.25868
 795.54;  370.370;  503.296;  449.005;-132.92565
 795.86;  -58.630;   41.629; -115.995;-100.25929
 796.19; -446.297; -515.704; -546.329;69.40707
 796.51; 1022.703;  972.630;  876.338;50.07344
 796.83; 1468.703; 1337.296; 1380.671;131.40647
 797.15;  569.036;  462.963;  479.005;106.07283
 797.47;  278.703;  234.297;  274.671;44.40586
 797.79; -360.631; -325.036; -316.662;-35.59444
 798.11; 1544.036; 1734.630; 1658.338;-190.59475
 798.44;  -22.298;   77.631;  -29.662;-99.92838
 798.76; 2532.702; 2672.631; 2584.338;-139.92869
 799.08;  211.369;  216.964;  239.338;-5.59566
 799.40;  489.035;  606.631;  596.004;-117.59596
 799.72;-2219.965;-2155.702;-2237.329;-64.26293
 800.04;-1026.965;-1015.035;-1060.662;-11.92990
 800.36;    6.368;  -63.702; -137.329;70.06980
 800.68;  232.368;  103.965;  101.004;128.40283
 801.01; -630.299; -638.368; -665.996; 8.06919
 801.33;  857.367;  913.299;  988.338;-55.93111
 801.65;  753.701;  898.299;  990.671;-144.59809
 801.97;  836.034;  869.299;  961.004;-33.26506
 802.29; -141.633;  -59.701;  876.004;-81.93203
 802.61; 1327.367; 1382.299; 2292.004;-54.93233
 802.93; 2365.033; 2485.966; 3386.338;-120.93263
 803.25; 1768.700; 1765.966; 1837.004; 2.73373
 803.57;  107.033;  111.633;  109.338;-4.59991
 803.90; 2039.033; 2018.633; 2007.004;20.39979
 804.22; 2012.033; 2028.967; 1960.671;-16.93385
 804.54; 1763.699; 1772.633; 1802.671;-8.93415
 804.86;-2035.968;-2043.366;-2007.329; 7.39888
 805.18;-2727.968;-2679.366;-2652.996;-48.60142
 805.50;-2386.968;-2329.033;-2308.996;-57.93506
 805.82;-2121.635;-2006.699;-1970.663;-114.93536
 806.14;-2380.635;-2296.032;-2313.663;-84.60233
 806.46; -110.968;  -63.366;  -70.663;-47.60264
 806.78;  -12.635;  -14.699;   15.671; 2.06373
 807.11;  760.698;  675.635;  878.337;85.06342
 807.43;-1305.969;-1366.032;-1247.996;60.06312
 807.75; -720.636; -695.365; -609.996;-25.27052
 808.07;  506.698;  545.635;  604.004;-38.93749
 808.39;  740.697;  717.969;  882.004;22.72888
 808.71;  971.364;  919.969; 1039.004;51.39524
 809.03;  586.697;  515.302;  622.004;71.39494
 809.35; -116.303;  -86.031;  -45.663;-30.27203
 809.67; -808.636; -827.031; -738.329;18.39433
 809.99;-1293.637;-1200.364;-1198.663;-93.27264
 810.31; -275.970; -138.697; -143.330;-137.27295
 810.63;  -76.304;   48.970;   75.337;-125.27325
 810.96;-1450.970;-1345.697;-1230.330;-105.27355
 811.28; 2603.363; 2583.303; 2745.004;20.05948
 811.60; 2879.696; 2919.303; 2993.004;-39.60749
 811.92; 3133.029; 3148.970; 3147.670;-15.94113
 812.24;-1776.971;-1649.363;-1667.330;-127.60810
 812.56;-2687.971;-2580.696;-2571.663;-107.27507
 812.88;  607.362;  729.637;  745.004;-122.27537
 813.20;  784.029;  886.971;  843.337;-102.94234
 813.52;  923.695; 1113.304; 1040.004;-189.60931
 813.84;-2086.972;-1971.029;-2069.663;-115.94295
 814.16;-2084.305;-2028.029;-2068.996;-56.27659
 814.48;-1118.305;-1140.362;-1174.663;22.05644
 814.80; 1382.361; 1366.972; 1366.004;15.38947
 815.12;  743.361;  834.305;  723.004;-90.94416
 815.45;  861.028;  935.639;  832.337;-74.61113
 815.77;-1691.973;-1542.361;-1672.330;-149.61144
 816.09; -777.639; -706.694; -711.663;-70.94507
 816.41;-2402.306;-2319.028;-2308.997;-83.27871
 816.73;  307.694;  307.973;  357.670;-0.27901
 817.05;  335.693;  284.639;  315.337;51.05402
 817.37; 1062.027; 1002.973; 1028.003;59.05371
 817.69;-1631.640;-1629.027;-1644.330;-2.61326
 818.01;-1567.640;-1425.027;-1487.997;-142.61356
 818.33; -377.974; -233.027; -298.330;-144.94720
 818.65; -536.974; -379.360; -449.330;-157.61417
 818.97;-1765.974;-1685.026;-1765.330;-80.94781
 819.29; -279.308; -307.693; -334.663;28.38522
 819.61; 1734.359; 1450.307; 1398.003;284.05159
 819.93; 2456.025; 2175.641; 2165.003;280.38462
 820.25; -290.308; -488.026; -549.997;197.71765
 820.57;-2413.975;-2340.359;-2370.663;-73.61599
 820.89;-2830.308;-2689.025;-2716.663;-141.28296
 821.21;-1675.309;-1556.692;-1517.997;-118.61660
 821.53;-1974.642;-1889.358;-1833.330;-85.28357
 821.85;-1038.309;-1019.692; -909.330;-18.61720
 822.17;-1972.309;-1931.358;-1842.664;-40.95084
 822.49;-1697.642;-1648.358;-1560.664;-49.28448
 822.81;-2315.643;-2292.358;-2256.330;-23.28478
 823.13;-1157.976;-1055.358;-1063.664;-102.61842
 823.45; -162.643;  -83.024;  -73.997;-79.61872
 823.78;    0.024;   77.976;  117.003;-77.95236
 824.10; -456.643; -387.024; -336.330;-69.61933
 824.42; -471.310; -473.024; -310.664; 1.71370
 824.74; -109.310;  -56.024;   34.003;-53.28660
 825.06; -304.310; -271.357; -170.997;-32.95357
 825.38;-1801.310;-1719.023;-1772.997;-82.28721
 825.70;   77.689;   59.310;  108.670;18.37916
 826.02; -983.644;-1011.690;-1043.997;28.04552
 826.34; 2704.356; 2716.311; 2674.003;-11.95478
 826.66; -340.644; -285.356; -439.331;-55.28842
 826.98; 1489.022; 1469.644; 1453.336;19.37794
 827.30;-1361.645;-1408.022;-1401.331;46.37764
 827.62;  497.355;  476.311;  530.336;21.04400
 827.94;  -70.312;  -12.355;  -78.331;-57.95630
 828.26; 2514.022; 2616.311; 2582.336;-102.28994
 828.58; 1814.021; 1882.645; 1813.336;-68.62358
 828.90; 1428.355; 1488.312; 1521.669;-59.95721
 829.22;-1261.646;-1212.355;-1231.331;-49.29085
 829.54;-1231.979;-1249.355;-1107.664;17.37551
 829.86;-1569.979;-1607.688;-1479.664;37.70854
 830.18; -833.313; -814.354; -667.331;-18.95843
 830.50;-1689.646;-1605.687;-1653.331;-83.95873
 830.82;-1783.980;-1687.354;-1731.664;-96.62570
 831.14;-2095.980;-2092.687;-2139.997;-3.29267
 831.46;-1851.647;-1864.354;-1816.997;12.70703
 831.78;-2435.980;-2483.687;-2480.331;47.70672
 832.10; -921.980; -885.353; -822.997;-36.62691
 832.42;   10.686;  124.313;   93.669;-113.62722
 832.74;  928.686; 1159.647;  814.336;-230.96085
 833.06;-1621.314;-1405.353;-1881.664;-215.96116
 833.37;-1091.981; -902.353;-1348.664;-189.62813
 833.69; -724.314; -632.353; -794.664;-91.96176
 834.01;  854.352;  963.648;  822.336;-109.29540
 834.33; 1184.019; 1183.314; 1044.669; 0.70430
 834.65; 2423.018; 2519.315; 2396.669;-96.29601
 834.97; 2681.352; 2814.981; 2690.336;-133.62964
 835.29; 1106.685; 1333.315; 1240.002;-226.62995
 835.61; -853.982; -741.352; -772.998;-112.63025
 835.93;-2236.982;-2173.685;-2123.664;-63.29722
 836.25;-1576.982;-1456.351;-1478.998;-120.63086
 836.57;-1508.316;-1348.351;-1425.998;-159.96450
 836.89; -515.649; -405.018; -511.331;-110.63147
 837.21; -365.316; -288.351; -305.664;-76.96510
 837.53; -278.316; -173.351; -190.998;-104.96541
 837.85; -762.316; -613.351; -637.665;-148.96571
 838.17; -579.983; -504.017; -539.998;-75.96601
 838.49; 1895.683; 1968.316; 2020.669;-72.63298
 838.81; 3172.017; 3349.316; 3335.335;-177.29995
 839.13; 1856.350; 2116.317; 2083.335;-259.96692
 839.45; -252.317;   -1.683; -211.331;-250.63389
 839.77; 1380.349; 1468.984; 1361.669;-88.63420
 840.09; 1894.016; 1984.984; 1898.002;-90.96783
 840.41; 1473.016; 1582.984; 1610.669;-109.96814
 840.73; -984.984; -845.016; -867.665;-139.96844
 841.05;  687.349;  782.651;  743.002;-95.30208
 841.36; 3482.015; 3531.984; 3385.335;-49.96905
 841.68; 4720.349; 4803.318; 4663.002;-82.96935
 842.00; 2921.682; 2987.651; 2892.669;-65.96965
 842.32;  987.682; 1025.652; 1071.002;-37.96996
 842.64;-1540.319;-1514.348;-1493.665;-25.97026
 842.96;-2159.985;-2125.682;-2110.331;-34.30390
 843.28;-3712.986;-3668.681;-3704.331;-44.30420
 843.60;-1486.652;-1486.015;-1493.998;-0.63784
 843.92;-1709.986;-1689.014;-1772.332;-20.97147
 844.24;-1104.653;-1061.681;-1134.332;-42.97178
 844.56;-2256.653;-2211.347;-2311.665;-45.30542
 844.88;  -40.320;  -45.347;  -69.332; 5.02761
 845.20; -119.320; -124.680; -169.665; 5.36064
 845.52; -600.987; -648.014; -614.665;47.02701
 845.84;-2952.320;-2970.347;-2990.332;18.02670
 846.15;-1797.987;-1919.347;-1699.665;121.35973
 846.47; 1041.346;  955.654; 1173.335;85.69276
 846.79; 2094.013; 2065.987; 2337.335;28.02579
 847.11; 2867.013; 2902.987; 2878.668;-35.97451
 847.43;  541.679;  616.321;  561.668;-74.64148
 847.75;   52.679;  125.654;   56.668;-72.97512
 848.07;  782.346;  836.654;  962.668;-54.30875
 848.39; -185.655; -138.679;  -27.332;-46.97572
 848.71; 2303.679; 2325.988; 2463.668;-22.30936
 849.03; 3185.012; 3248.655; 3237.668;-63.64300
 849.35; 3358.678; 3442.655; 3511.335;-83.97663
 849.67;  452.011;  481.988;  496.001;-29.97694
 849.98;-1891.989;-1884.345;-1773.999;-7.64391
 850.30;-2256.656;-1714.011;-1366.665;-542.64421
 850.62; -631.322; -311.345;   72.001;-319.97785
 850.94;-1161.989; -861.011; -487.332;-300.97815
 851.26; -725.323; -992.678; -879.665;267.35488
 851.58;-2036.656;-2045.011;-1952.999; 8.35458
 851.90;-2603.323;-2584.677;-2490.665;-18.64573
 852.22;-2645.990;-2594.010;-2536.665;-51.97936
 852.54;-2285.323;-2193.010;-2097.332;-92.31300
 852.85;-1629.990;-1526.677;-1475.665;-103.31331
 853.17;-1993.657;-1861.677;-1826.999;-131.98028
 853.49;-1848.990;-1700.010;-1775.999;-148.98058
 853.81;-1131.991;-1050.676;-1043.332;-81.31422
 854.13;  -16.324;   81.324;   74.335;-97.64785
 854.45;  394.676;  412.324;  506.001;-17.64816
 854.77;   16.676;  203.991;  113.334;-187.31513
 855.09; -632.991; -536.009; -566.332;-96.98210
 855.41;-1736.658;-1587.342;-1662.999;-149.31573
 855.72;-2366.658;-2328.009;-2279.999;-38.64937
 856.04;-2247.325;-2185.675;-2210.332;-61.64967
 856.36;-1494.658;-1447.008;-1446.999;-47.64998
 856.68;  -98.325;    4.992;    1.001;-103.31695
 857.00; 2042.675; 2093.992; 2223.334;-51.31725
 857.32; 1462.008; 1527.659; 1595.334;-65.65089
 857.64;  232.341;  232.326;  271.668; 0.01548
 857.96;-2339.326;-2241.008;-2301.332;-98.31816
 858.27;-1134.326;-1085.008;-1087.332;-49.31846
 858.59;-1811.993;-1702.674;-1689.666;-109.31877
 858.91; -949.660; -888.007; -844.332;-61.65240
 859.23; 1054.007; 1158.993; 1122.334;-104.98604
 859.55; 2800.340; 2887.660; 2797.334;-87.31968
 859.87; 2810.673; 2878.327; 2736.334;-67.65331
 860.19;  192.006;  227.327;  236.001;-35.32028
 860.50;-1610.327;-1574.006;-1563.999;-36.32059
 860.82;-1633.661;-1576.340;-1479.333;-57.32089
 861.14;  146.673;  177.327;  134.667;-30.65453
 861.46;  320.006;  315.327;  359.667; 4.67850
 861.78; 1282.672; 1267.661; 1276.001;15.01153
 862.10;-1131.661;-1085.672;-1052.999;-45.98877
 862.42; 3784.005; 3784.661; 3682.334;-0.65574
 862.73; 4034.339; 4102.328; 4005.667;-67.98938
 863.05; 4657.672; 4765.328; 4641.334;-107.65635
 863.37; 1784.338; 1885.995; 1886.334;-101.65665
 863.69; 1131.671; 1203.995; 1125.667;-72.32362
 864.01; 3379.005; 3337.995; 3393.334;41.00941
 864.33; 2696.671; 2680.995; 2706.334;15.67577
 864.64; 1384.338; 1362.996; 1425.667;21.34213
 864.96;-2021.996;-1943.338;-1965.999;-78.65817
 865.28;-2270.663;-2122.337;-2176.333;-148.32514
 865.60;  506.337;  593.996;  552.667;-87.65878
 865.92; 2387.337; 2459.330; 2490.667;-71.99241
 866.24; 1469.670; 1509.663; 1526.334;-39.99272
 866.55;  -61.997;  -45.337;   -4.000;-16.65969
 866.87;   83.003;   54.663;   42.000;28.34001
 867.19; -404.997; -429.337; -382.000;24.33971
 867.51;-1135.330;-1084.670;-1108.666;-50.66060
 867.83;-1417.330;-1335.670;-1337.333;-81.66090
 868.15; -288.664; -174.336; -280.000;-114.32787
 868.46;  360.003;  411.664;  362.000;-51.66151
 868.78; -158.998; -195.669; -254.666;36.67152
 869.10;  161.336;  164.664;  116.667;-3.32878
 869.42; 1153.335; 1202.998; 1065.334;-49.66242
 869.74; 1298.669; 1475.665; 1284.000;-176.99606
 870.05;  961.335; 1141.331;  975.000;-179.99636
 870.37; -923.332; -759.668; -780.333;-163.66333
 870.69;-1961.998;-1858.668;-1848.000;-103.33030
 871.01;-3026.332;-3022.335;-2905.000;-3.99727
 871.33;-3803.665;-3764.001;-3745.333;-39.66424
 871.65;-2943.666;-2833.334;-2801.667;-110.33121
 871.96;-1147.666;-1055.668;-1073.333;-91.99818
 872.28; -296.999; -223.667; -188.333;-73.33182
 872.60;-1210.666;-1184.001;-1150.333;-26.66545
 872.92;-1391.000;-1242.334;-1248.333;-148.66576
 873.24;  121.667;  303.666;  293.333;-181.99939
 873.55; 1566.667; 1695.667; 1697.000;-128.99970
 873.87; 1146.333; 1214.333; 1190.667;-68.00000
 874.19;  303.000;  352.000;  361.333;-49.00000
 874.51;  121.333;  215.000;  191.333;-93.66667
 874.82;  456.000;  498.667;  588.333;-42.66667
 875.14; -741.667; -724.000; -702.000;-17.66667
 875.46; -155.667; -174.667; -116.333;19.00000
 875.78;  199.000;  162.333;  170.667;36.66667
 876.10;  498.333;  475.333;  509.667;23.00000
 876.41; 2159.333; 2225.000; 2227.333;-65.66667
 876.73; 1208.667; 1395.667; 1310.333;-187.00000
 877.05; 1282.667; 1505.667; 1387.667;-223.00000
 877.37;-1994.333;-1855.667;-1896.667;-138.66667
 877.69;-1708.667;-1678.667;-1638.000;-30.00000
 878.00;   18.000;  -42.000;   79.667;60.00000
 878.32; 2997.667; 2851.333; 2896.333;146.33333
 878.64; 2360.000; 1867.000; 2322.667;493.00000
 878.96; -163.333; -655.000; -245.667;491.66667
 879.27;-2202.333;-2620.000;-2182.667;417.66667
 879.59;-1875.667;-1940.333;-1890.667;64.66667
 879.91; 1154.333; 1179.000; 1184.667;-24.66667
 880.23;   44.667;  143.667;  129.000;-99.00000
 880.54;   29.000;  193.333;  166.333;-164.33333
 880.86; -847.333; -673.000; -690.333;-174.33333
 881.18; -614.333; -504.667; -502.333;-109.66667
 881.50;-1274.667;-1241.000;-1205.667;-33.66667
 881.82;-2336.667;-2328.000;-2263.333;-8.66667
 882.13; -844.667; -774.333; -771.333;-70.33333
 882.45; 1294.000; 1340.667; 1450.000;-46.66667
 882.77; 1794.333; 1724.000; 1879.667;70.33333
 883.09; 1156.333; 1090.333; 1293.333;66.00000
 883.40;   25.667;   64.000;   93.000;-38.33333
 883.72;  -93.333;   13.000;   20.000;-106.33333
 884.04;  136.333;  228.667;  228.000;-92.33333
 884.36; -662.667; -523.667; -551.000;-139.00000
 884.67;-1208.000;-1054.667;-1115.000;-153.33333
 884.99; -227.667; -154.667; -160.333;-73.00000
 885.31; -310.000; -322.667; -285.667;12.66667
 885.63; -526.333; -523.333; -449.000;-3.00000
 885.94;-2562.667;-2508.667;-2514.000;-54.00000
 886.26; -631.667; -558.333; -541.333;-73.33333
 886.58;-1305.667;-1261.667;-1236.000;-44.00000
 886.89;  896.667; 1083.667; 1060.000;-187.00000
 887.21;  253.667;  366.000;  337.000;-112.33333
 887.53; 1340.333; 1472.667; 1382.000;-132.33333
 887.85;  195.667;  207.667;  186.333;-12.00000
 888.16;  116.000;  218.000;  222.333;-102.00000
 888.48;  -81.000;   78.000;   18.000;-159.00000
 888.80; 2287.000; 2324.667; 2411.333;-37.66667
 889.12; 1505.000; 1521.333; 1586.333;-16.33333
 889.43; 3075.000; 3068.000; 3232.000; 7.00000
 889.75;  333.000;  450.333;  491.000;-117.33333
 890.07; -189.333;  -49.667;  -11.667;-139.66667
 890.38; -841.000; -749.000; -729.000;-92.00000
 890.70; -770.667; -644.000; -680.667;-126.66667
 891.02; 1552.667; 1554.000; 1528.000;-1.33333
 891.34;  965.333;  992.667; 1007.000;-27.33333
 891.65;  -20.667;  -38.667;   -5.667;18.00000
 891.97;  110.333;  277.000;  195.333;-166.66667
 892.29;  510.667;  678.000;  492.667;-167.33333
 892.60; 1407.333; 1517.667; 1438.333;-110.33333
 892.92; -532.333; -533.000; -489.000; 0.66667
 893.24;  293.333;  250.667;  411.333;42.66667
 893.56;  242.000;  212.000;  312.333;30.00000
 893.87;  955.667;  881.333;  975.000;74.33333
 894.19;-1084.000;-1084.667;-1061.667; 0.66667
 894.51; 1327.000; 1333.333; 1366.333;-6.33333
 894.82;  265.667;  433.667;  395.667;-168.00000
 895.14; 2708.000; 2818.333; 2825.667;-110.33333
 895.46;   47.333;  259.667;  194.667;-212.33333
 895.77;  313.000;  432.667;  434.000;-119.66667
 896.09;-2039.000;-1927.667;-1955.333;-111.33333
 896.41; -771.667; -689.000; -662.333;-82.66667
 896.73; -924.000; -836.667; -856.333;-87.33333
 897.04;  618.667;  752.000;  743.000;-133.33333
 897.36;  232.667;  350.000;  301.667;-117.33333
 897.68;  303.333;  401.333;  482.000;-98.00000
 897.99;-1530.667;-1488.667;-1418.333;-42.00000
 898.31; -984.000; -978.667; -867.667;-5.33333
 898.63;-1212.667;-1212.333;-1225.000;-0.33333
 898.94;  710.667;  692.667;  754.333;18.00000
 899.26; -136.000;  -52.333; -103.667;-83.66667
 899.58;  730.333;  846.000;  783.000;-115.66667
 899.89; 1479.333; 1548.333; 1436.333;-69.00000
 900.21; 3266.333; 3229.000; 3246.333;37.33333
 900.53; 4225.333; 4174.000; 4141.333;51.33333
 900.84; 2501.667; 2455.333; 2471.000;46.33333
 901.16; -406.667; -450.333; -457.667;43.66667
 901.48; -228.000; -253.667; -267.000;25.66667
 901.79; -424.667; -318.667; -426.667;-106.00000
 902.11; 1121.667; 1313.333; 1199.667;-191.66667
 902.43;  -71.000;   91.333;   73.000;-162.33333
 902.74; 1065.667; 1188.667; 1174.667;-123.00000
 903.06;  308.333;  344.333;  339.667;-36.00000
 903.38; -420.000; -369.000; -385.333;-51.00000
 903.69; -983.667; -898.333; -989.000;-85.33333
 904.01;-1928.000;-1799.333;-1872.667;-128.66667
 904.33; -317.000; -317.333; -336.667; 0.33333
 904.64;   -3.667;  -30.333;   49.333;26.66667
 904.96;  540.000;  515.000;  541.333;25.00000
 905.28;-1061.000; -963.667;-1032.333;-97.33333
 905.59;-2273.333;-2173.333;-2239.667;-100.00000
 905.91;-1664.333;-1607.667;-1659.000;-56.66667
 906.23;-1489.333;-1417.333;-1426.000;-72.00000
 906.54; -744.667; -662.000; -659.667;-82.66667
 906.86;-1708.000;-1561.333;-1620.000;-146.66667
 907.18;-1756.000;-1589.000;-1713.667;-167.00000
 907.49;-2201.000;-2032.333;-2201.000;-168.66667
 907.81;-1953.333;-1876.667;-1935.000;-76.66667
 908.12; -389.000; -366.333; -416.000;-22.66667
 908.44;  402.333;  378.000;  396.000;24.33333
 908.76;  109.000;  194.333;  109.000;-85.33333
 909.07;   -2.667;   -6.000;  -23.667; 3.33333
 909.39; -787.000; -836.667; -888.667;49.66667
 909.71; 1851.333; 1721.667; 1811.667;129.66667
 910.02; 2208.667; 2161.333; 2168.667;47.33333
 910.34; 2457.333; 2512.667; 2548.667;-55.33333
 910.65; 1076.000; 1146.000; 1063.000;-70.00000
 910.97; -682.667; -567.333; -580.000;-115.33333
 911.29; -189.000;  -86.667; -159.333;-102.33333
 911.60; 1773.667; 1930.333; 1796.667;-156.66667
 911.92; 1089.333; 1250.667; 1068.667;-161.33333
 912.24; 2243.000; 2427.333; 2320.667;-184.33333
 912.55; -289.667; -136.667; -200.333;-153.00000
 912.87; -230.667; -123.000; -128.000;-107.66667
 913.18;-2460.333;-2378.000;-2400.333;-82.33333
 913.50;-2434.333;-2363.667;-2341.000;-70.66667
 913.82;-1990.333;-1870.000;-1882.333;-120.33333
 914.13; -744.333; -668.667; -667.333;-75.66667
 914.45;-1701.667;-1640.667;-1644.667;-61.00000
 914.76;  353.000;  401.667;  354.667;-48.66667
 915.08; -811.667; -714.333; -821.000;-97.33333
 915.40;   67.667;  164.667;   72.667;-97.00000
 915.71; -763.000; -654.000; -734.667;-109.00000
 916.03; 1101.333; 1196.000; 1145.333;-94.66667
 916.34; 2144.000; 2304.333; 2192.000;-160.33333
 916.66; 1481.333; 1549.667; 1497.000;-68.33333
 916.98; 1068.667; 1039.667;  963.000;29.00000
 917.29;   62.667;   33.667;   69.000;29.00000
 917.61; 1906.000; 1893.333; 1922.667;12.66667
 917.92; 1600.333; 1649.667; 1684.333;-49.33333
 918.24; 1083.000; 1079.000; 1080.000; 4.00000
 918.56;   93.333;   97.333;  135.333;-4.00000
 918.87;  632.000;  677.000;  760.667;-45.00000
 919.19; 1143.000; 1214.333; 1278.333;-71.33333
 919.50; -528.000; -384.000; -297.667;-144.00000
 919.82;-1795.000;-1627.333;-1574.333;-167.66667
 920.13;  458.667;  570.333;  536.333;-111.66667
 920.45; 2037.000; 2133.333; 2105.667;-96.33333
 920.77; 2491.000; 2604.667; 2504.333;-113.66667
 921.08;  655.000;  802.333;  776.000;-147.33333
 921.40; -297.333; -158.000; -265.667;-139.33333
 921.71;-1121.667;-1054.000; -998.667;-67.66667
 922.03;  781.333;  818.000;  927.667;-36.66667
 922.35; 3465.667; 3459.667; 3655.000; 6.00000
 922.66; 4738.000; 4822.667; 4832.667;-84.66667
 922.98; 2389.333; 2538.000; 2506.000;-148.66667
 923.29; 1086.333; 1284.000; 1095.333;-197.66667
 923.61;  567.333;  661.333;  572.667;-94.00000
 923.92; 1199.333; 1005.333;  925.667;194.00000
 924.24; -564.333; -827.000; -740.667;262.66667
 924.55;-1743.333;-1977.333;-1935.000;234.00000
 924.87;-1601.333;-1598.333;-1531.667;-3.00000
 925.19;-2259.000;-2216.333;-2255.667;-42.66667
 925.50;-2014.333;-2009.000;-1979.000;-5.33333
 925.82;-3557.667;-3539.667;-3551.667;-18.00000
 926.13; -616.333; -634.333; -553.333;18.00000
 926.45;  -95.333;  -89.000;  -45.667;-6.33333
 926.76;  185.333;  122.667;  240.000;62.66667
 927.08;-2727.000;-2746.333;-2682.667;19.33333
 927.39;-2934.667;-2917.667;-2865.667;-17.00000
 927.71;-1824.667;-1780.333;-1718.000;-44.33333
 928.03;-1543.333;-1477.000;-1429.333;-66.33333
 928.34;-1871.667;-1869.000;-1780.667;-2.66667
 928.66;-2415.000;-2359.000;-2269.333;-56.00000
 928.97;-2599.000;-2516.000;-2436.333;-83.00000
 929.29;-1859.333;-1712.000;-1663.667;-147.33333
 929.60; -908.333; -867.000; -828.000;-41.33333
 929.92; 3429.000; 3471.000; 3471.333;-42.00000
 930.23; 4594.667; 4612.667; 4636.333;-18.00000
 930.55; 3881.000; 3998.333; 3931.667;-117.33333
 930.86;  842.000;  860.333;  788.333;-18.33333
 931.18; -785.000; -769.333; -856.333;-15.66667
 931.49; -274.667; -275.667; -389.000; 1.00000
 931.81;  -37.000;   22.000;  -20.333;-59.00000
 932.12;  259.333;  370.333;  277.000;-111.00000
 932.44;  752.000;  902.667;  839.000;-150.66667
 932.75; -138.333;   49.000;  -35.333;-187.33333
 933.07;  773.667;  879.000;  880.000;-105.33333
 933.38;  -29.667;  -15.000;   76.000;-14.66667
 933.70; 1302.000; 1232.000; 1345.333;70.00000
 934.02; 1414.000; 1352.333; 1409.333;61.66667
 934.33; 2456.333; 2498.333; 2484.333;-42.00000
 934.65;  386.000;  510.000;  482.000;-124.00000
 934.96; -964.000; -833.667; -865.667;-130.33333
 935.28;-2214.333;-2115.667;-2189.667;-98.66667
 935.59; -864.000; -760.333; -815.667;-103.66667
 935.91; -287.667; -169.333; -192.333;-118.33333
 936.22;  132.667;  222.667;  328.667;-90.00000
 936.54;  606.000;  645.667;  764.000;-39.66667
 936.85; -137.000;  -90.667;  -38.667;-46.33333
 937.17; -890.000; -820.333; -864.000;-69.66667
 937.48; -674.333; -616.333; -650.667;-58.00000
 937.80; 1174.333; 1261.000; 1233.667;-86.66667
 938.11; 2040.667; 2095.667; 2106.333;-55.00000
 938.43; 1036.333; 1129.667; 1026.667;-93.33333
 938.74;  838.667;  820.000;  806.333;18.66667
 939.06;  192.333;  116.000;   94.000;76.33333
 939.37; -639.667; -724.667; -653.000;85.00000
 939.68;-2430.667;-2434.000;-2447.000; 3.33333
 940.00;-1340.000;-1257.000;-1258.667;-83.00000
 940.31; -757.000; -592.000; -703.000;-165.00000
 940.63; 2389.333; 2582.667; 2463.000;-193.33333
 940.94;  435.000;  566.333;  414.667;-131.33333
 941.26;  293.667;  361.000;  281.333;-67.33333
 941.57;-1094.000;-1047.000;-1044.667;-47.00000
 941.89;  521.000;  527.000;  572.000;-6.00000
 942.20;  528.000;  467.000;  542.000;61.00000
 942.52;  118.333;   31.333;   52.000;87.00000
 942.83; -921.000; -885.333; -911.333;-35.66667
 943.15; -526.000; -438.000; -482.000;-88.00000
 943.46; -434.667; -251.667; -356.333;-183.00000
 943.78;   41.000;  164.333;   72.000;-123.33333
 944.09; -828.667; -714.667; -792.667;-114.00000
 944.41;  314.667;  313.000;  342.333; 1.66667
 944.72; -905.333; -886.000; -793.667;-19.33333
 945.04; -383.000; -349.667; -310.667;-33.33333
 945.35; -850.000; -870.333; -805.333;20.33333
 945.66; -690.000; -730.667; -685.667;40.66667
 945.98; -577.667; -601.333; -543.000;23.66667
 946.29;-2438.333;-2364.000;-2340.667;-74.33333
 946.61;-2086.667;-2003.667;-2048.667;-83.00000
 946.92;-1001.333; -932.667; -943.667;-68.66667
 947.24;-1726.667;-1651.667;-1706.667;-75.00000
 947.55; 2407.000; 2461.667; 2469.000;-54.66667
 947.87; 2331.000; 2265.000; 2300.000;66.00000
 948.18; 4814.333; 4715.333; 4772.000;99.00000
 948.49; 1593.333; 1520.667; 1488.333;72.66667
 948.81; 2859.000; 2855.000; 2763.667; 4.00000
 949.12; 2182.333; 2237.667; 2068.667;-55.33333
 949.44; 2882.000; 2880.000; 2781.667; 2.00000
 949.75; 1532.000; 1574.667; 1458.000;-42.66667
 950.07;  845.667;  872.667;  858.333;-27.00000
 950.38;  345.000;  442.000;  356.333;-97.00000
 950.70; -599.000; -562.667; -547.667;-36.33333
 951.01;   58.667;   67.000;   30.667;-8.33333
 951.32; -767.000; -780.333; -758.333;13.33333
 951.64;-1519.000;-1444.000;-1561.000;-75.00000
 951.95;-2149.333;-2037.333;-2198.333;-112.00000
 952.27; -868.667; -791.667; -963.667;-77.00000
 952.58; -557.000; -532.333; -565.667;-24.66667
 952.90;  195.333;  173.333;  182.333;22.00000
 953.21; -395.333; -340.667; -265.000;-54.66667
 953.52; -410.000; -284.667; -359.667;-125.33333
 953.84;  132.667;  281.000;  239.667;-148.33333
 954.15; -662.333; -551.333; -706.000;-111.00000
 954.47; -884.000; -776.333; -802.000;-107.66667
 954.78;-2567.667;-2433.333;-2485.667;-134.33333
 955.09;  -43.333;  174.000;  141.667;-217.33333
 955.41;  851.000;  998.000;  948.667;-147.00000
 955.72; 2285.667; 2463.000; 2342.667;-177.33333
 956.04; -294.000; -141.333; -298.000;-152.66667
 956.35;  157.667;  367.667;  192.333;-210.00000
 956.66; -322.333; -174.000; -307.000;-148.33333
 956.98; -613.667; -485.333; -272.667;-128.33333
 957.29; -778.333; -715.667; -514.000;-62.66667
 957.61; 2911.333; 2917.000; 3292.000;-5.66667
 957.92; 3977.667; 3954.000; 4000.333;23.66667
 958.23; 3418.333; 3393.333; 3474.333;25.00000
 958.55;-1074.667;-1093.667;-1104.000;19.00000
 958.86; -397.000; -391.333; -428.000;-5.66667
 959.18; 3809.667; 3782.333; 3632.667;27.33333
 959.49; 4865.667; 4868.000; 4723.667;-2.33333
 959.80; 3637.333; 3653.000; 3526.667;-15.66667
 960.12;  -74.333;   52.667;   24.333;-127.00000
 960.43; -967.000; -804.000; -897.333;-163.00000
 960.75;-1301.667;-1170.000;-1185.000;-131.66667
 961.06; -949.000; -839.000; -929.667;-110.00000
 961.37;  278.333;  266.000;  316.667;12.33333
 961.69; 1622.333; 1649.333; 1611.333;-27.00000
 962.00; 1823.333; 1297.000; 1300.667;526.33333
 962.31; 1075.000;  689.333;  592.000;385.66667
 962.63;  -55.000; -497.333; -484.667;442.33333
 962.94; -808.667; -736.333; -717.667;-72.33333
 963.26;-2112.333;-2056.667;-2024.667;-55.66667
 963.57;-1465.333;-1337.333;-1381.667;-128.00000
 963.88; 1512.000; 1625.667; 1630.333;-113.66667
 964.20; 4352.667; 4476.333; 4370.333;-123.66667
 964.51; 3940.000; 3910.000; 3943.333;30.00000
 964.82;  990.000; 1013.000;  966.333;-23.00000
 965.14;  208.333;  227.333;  249.333;-19.00000
 965.45;  870.667; 1065.000; 1048.667;-194.33333
 965.77;  257.000;  415.000;  495.333;-158.00000
 966.08;-1431.333;-1318.667;-1247.000;-112.66667
 966.39;-1897.333;-1934.667;-1880.000;37.33333
 966.71; -895.667; -920.667; -949.333;25.00000
 967.02;-1105.667;-1147.333;-1057.333;41.66667
 967.33;-1940.667;-1899.667;-1895.667;-41.00000
 967.65;-1010.667; -944.000; -895.333;-66.66667
 967.96;  -35.333;   26.667;   22.667;-62.00000
 968.27; 1591.000; 1665.667; 1704.333;-74.66667
 968.59;  420.667;  420.333;  461.667; 0.33333
 968.90;  944.667;  927.000;  992.667;17.66667
 969.21; -206.667; -334.333; -242.000;127.66667
 969.53; 1725.667; 1626.333; 1711.667;99.33333
 969.84;  608.000;  543.000;  565.000;65.00000
 970.15;  403.667;  475.000;  474.333;-71.33333
 970.47;-2371.667;-2248.333;-2313.000;-123.33333
 970.78;-1105.667; -963.000;-1031.000;-142.66667
 971.09;-1360.333;-1317.333;-1401.667;-43.00000
 971.41; -429.667; -435.667; -446.000; 6.00000
 971.72;-1930.000;-1933.667;-1977.333; 3.66667
 972.03; -573.333; -534.667; -495.333;-38.66667
 972.35;-1983.333;-1951.333;-1924.667;-32.00000
 972.66;-1614.000;-1549.667;-1474.000;-64.33333
 972.97;-2418.333;-2395.667;-2405.000;-22.66667
 973.29;-1829.000;-1858.667;-1872.333;29.66667
 973.60; -755.333; -812.000; -844.000;56.66667
 973.91; -458.667; -491.667; -459.333;33.00000
 974.23; -338.667; -308.667; -366.333;-30.00000
 974.54; -935.333; -871.667; -937.000;-63.66667
 974.85;-1701.667;-1673.000;-1802.667;-28.66667
 975.17;-1130.667;-1082.333;-1121.000;-48.33333
 975.48;  348.667;  346.667;  314.333; 2.00000
 975.79;  106.333;  172.000;  198.333;-65.66667
 976.10; -168.333; -117.667;  -94.333;-50.66667
 976.42;-2622.667;-2546.333;-2453.667;-76.33333
 976.73; -593.333; -535.000; -515.000;-58.33333
 977.04; -392.000; -320.333; -272.667;-71.66667
 977.36;  184.667;  241.000;  216.000;-56.33333
 977.67; -351.333; -226.333; -234.333;-125.00000
 977.98;  535.333;  682.667;  592.667;-147.33333
 978.30;  697.000;  890.333;  804.667;-193.33333
 978.61; -455.000; -279.667; -381.667;-175.33333
 978.92; -624.000; -463.000; -512.000;-161.00000
 979.23; -517.667; -378.667; -456.000;-139.00000
 979.55;  177.000;  288.333;  253.667;-111.33333
 979.86;  359.000;  396.667;  402.333;-37.66667
 980.17;  190.000;  244.333;  314.667;-54.33333
 980.49;  553.333;  630.000;  606.667;-76.66667
 980.80; -924.000; -793.667; -821.333;-130.33333
 981.11;-1530.333;-1433.667;-1492.667;-96.66667
 981.42;-1211.000;-1138.000;-1090.667;-73.00000
 981.74;-1225.000;-1159.000;-1106.667;-66.00000
 982.05; 2092.333; 2144.667; 2265.000;-52.33333
 982.36; 1284.667; 1354.667; 1415.333;-70.00000
 982.68; 3710.333; 3796.000; 3758.000;-85.66667
 982.99; 1389.667; 1497.667; 1368.667;-108.00000
 983.30; 3565.000; 3559.333; 3521.667; 5.66667
 983.61; 2306.333; 2268.000; 2242.000;38.33333
 983.93; 2035.333; 2071.667; 2018.667;-36.33333
 984.24; -828.667; -727.667; -877.000;-101.00000
 984.55;-1113.000;-1021.000;-1103.000;-92.00000
 984.86;-1954.000;-1900.000;-1924.000;-54.00000
 985.18;-1374.000;-1447.000;-1515.667;73.00000
 985.49;-2108.333;-2095.000;-2277.333;-13.33333
 985.80;-2031.667;-2088.667;-2283.667;57.00000
 986.12;-1600.667;-1532.667;-1694.000;-68.00000
 986.43;-1885.000;-1905.000;-1944.333;20.00000
 986.74; -959.000; -976.667;-1018.333;17.66667
 987.05; -656.667; -710.000; -688.333;53.33333
 987.37; -767.667; -744.000; -775.000;-23.66667
 987.68;-1562.000;-1523.333;-1510.667;-38.66667
 987.99;-2274.333;-2165.667;-2184.667;-108.66667
 988.30;-2365.333;-2287.000;-2264.333;-78.33333
 988.62;-1024.333; -911.667; -974.667;-112.66667
 988.93;  632.333;  708.667;  690.667;-76.33333
 989.24;  822.333;  911.000;  870.667;-88.66667
 989.55; -358.333; -359.333; -313.667; 1.00000
 989.86;-2340.000;-2336.667;-2308.333;-3.33333
 990.18; -513.333; -476.333; -420.000;-37.00000
 990.49; 1291.333; 1403.000; 1422.667;-111.66667
 990.80; 2429.333; 2651.000; 2589.667;-221.66667
 991.11; 1273.000; 1454.667; 1334.000;-181.66667
 991.43; -181.667;  -20.667; -128.667;-161.00000
 991.74;  -12.000;  196.000;    7.333;-208.00000
 992.05; -995.000; -737.000; -948.333;-258.00000
 992.36; -510.667; -229.000; -505.000;-281.66667
 992.68;-1394.667;-1185.667;-1300.667;-209.00000
 992.99; 1731.333; 1953.333; 1848.333;-222.00000
 993.30; 1371.000; 1478.333; 1470.667;-107.33333
 993.61;  754.000;  778.333;  764.000;-24.33333
 993.92; -989.000;-1035.000; -988.000;46.00000
 994.24;  168.000;  135.333;  160.667;32.66667
 994.55; 1769.333; 1786.333; 1823.333;-17.00000
 994.86; 1182.333; 1107.333; 1153.000;75.00000
 995.17; 2737.333; 2714.667; 2852.333;22.66667
 995.49; 1312.333; 1344.000; 1394.667;-31.66667
 995.80; 1300.333; 1454.000; 1521.667;-153.66667
 996.11;-2215.667;-2052.333;-2087.667;-163.33333
 996.42;-1861.667;-1745.333;-1721.333;-116.33333
 996.73;-1027.000; -932.333; -943.667;-94.66667
 997.05;  672.000;  835.667;  772.333;-163.66667
 997.36;  159.000;  354.000;  299.667;-195.00000
 997.67; 1278.333; 1500.667; 1361.667;-222.33333
 997.98;  333.667;  492.667;  370.667;-159.00000
 998.29; 1403.333; 1492.667; 1435.667;-89.33333
 998.61;-1468.667;-1406.667;-1396.333;-62.00000
 998.92; -413.667; -346.667; -306.667;-67.00000
 999.23; 1412.333; 1466.000; 1347.667;-53.66667
 999.54; 5387.000; 5467.333; 5383.667;-80.33333
 999.85; 3772.333; 3829.333; 3806.667;-57.00000
1000.16;  801.333;  867.667;  970.667;-66.33333
1000.48;-1288.000;-1285.000;-1222.000;-3.00000
1000.79;   16.000;   75.333;   49.333;-59.33333
1001.10;  166.333;  216.000;  127.333;-49.66667
1001.41; -327.667; -327.000; -387.667;-0.66667
1001.72;-1186.667;-1235.333;-1289.000;48.66667
1002.04; -208.333; -200.333; -234.667;-8.00000
1002.35;  417.667;  570.667;  466.667;-153.00000
1002.66; 2730.333; 2902.333; 2904.333;-172.00000
1002.97; 1773.667; 1935.333; 1885.333;-161.66667
1003.28; 2351.667; 2458.333; 2503.000;-106.66667
1003.59; -256.000; -168.667; -206.667;-87.33333
1003.91; 1644.667; 1729.667; 1675.667;-85.00000
1004.22; 1185.333; 1151.000; 1067.000;34.33333
1004.53; 2344.333; 2357.333; 2253.667;-13.00000
1004.84;  -57.667; -106.667; -119.667;49.00000
1005.15; -194.667; -159.000; -160.333;-35.66667
1005.46; -715.000; -654.333; -656.667;-60.66667
1005.78;  623.000;  683.000;  665.667;-60.00000
1006.09;  -27.000;    9.000;  -64.000;-36.00000
1006.40;  579.333;  551.000;  531.667;28.33333
1006.71; -369.333; -295.000; -370.000;-74.33333
1007.02;   85.333;  208.000;  463.333;-122.66667
1007.33; -677.000; -578.000; -389.000;-99.00000
1007.65; -216.000; -233.667;   45.000;17.66667
1007.96;  426.333;  422.000;  420.667; 4.33333
1008.27; 1614.667; 1637.000; 1717.333;-22.33333
1008.58;  653.333;  683.667;  738.333;-30.33333
1008.89; -987.667; -977.333; -882.333;-10.33333
1009.20; 1678.000; 1661.333; 1655.667;16.66667
1009.51; 2506.000; 2512.667; 2543.667;-6.66667
1009.83; 2216.000; 2206.000; 2256.667;10.00000
1010.14;-1181.667;-1210.667;-1138.000;29.00000
1010.45;-1455.667;-1488.667;-1476.333;33.00000
1010.76; -941.333; -954.667;-1008.000;13.33333
1011.07;-2113.000;-2044.333;-2108.000;-68.66667
1011.38;-1158.000;-1093.000;-1060.667;-65.00000
1011.69;-1915.000;-1822.667;-1824.000;-92.33333
1012.00; -489.000; -382.333; -324.333;-106.66667
1012.32;-1335.333;-1240.667;-1293.000;-94.66667
1012.63;  469.667;  508.667;  525.000;-39.00000
1012.94; 1888.333; 1809.000; 1904.333;79.33333
1013.25; 4452.667; 4395.667; 4550.000;57.00000
1013.56; 3557.000; 3496.333; 3640.333;60.66667
1013.87;  866.667;  910.667;  959.667;-44.00000
1014.18;-1155.667;-1128.000;-1062.000;-27.66667
1014.49; -392.333; -305.667; -251.333;-86.66667
1014.81; 1807.667; 1885.000; 1988.000;-77.33333
1015.12; 1468.000; 1534.000; 1607.333;-66.00000
1015.43; 1767.333; 1727.000; 1848.667;40.33333
1015.74; 1111.000; 1088.333; 1132.000;22.66667
1016.05;  466.667;  477.333;  472.333;-10.66667
1016.36; -603.000; -535.333; -567.667;-67.66667
1016.67;-2127.000;-2122.333;-2140.333;-4.66667
1016.98; -483.333; -384.333; -354.667;-99.00000
1017.29;  277.667;  391.667;  347.333;-114.00000
1017.60;  807.667;  905.667;  927.000;-98.00000
1017.92;  434.667;  410.667;  470.000;24.00000
1018.23;   92.667;   18.667;  170.667;74.00000
1018.54; -477.667; -556.333; -416.000;78.66667
1018.85; -184.333; -504.333; -277.333;320.00000
1019.16; -160.667; -476.000; -321.000;315.33333
1019.47; -411.667; -648.333; -590.667;236.66667
1019.78; -682.667; -583.667; -734.667;-99.00000
1020.09; -337.000; -184.667; -318.000;-152.33333
1020.40;  538.000;  680.000;  610.667;-142.00000
1020.71; 1537.333; 1642.667; 1663.667;-105.33333
1021.02;   99.667;  241.333;  225.333;-141.66667
1021.34;  358.333;  444.333;  447.333;-86.00000
1021.65; -175.000; -194.000; -143.000;19.00000
1021.96;  -56.000;  -91.667;   45.000;35.66667
1022.27; -801.000; -853.667; -772.000;52.66667
1022.58;-1107.000;-1089.667;-1056.333;-17.33333
1022.89; -932.000; -935.667; -970.333; 3.66667
1023.20; 2780.667; 2699.333; 2772.000;81.33333
1023.51; 2464.667; 2421.000; 2447.000;43.66667
1023.82; 3638.333; 3613.333; 3684.667;25.00000
1024.13; -106.000;   22.000;  -59.667;-128.00000
1024.44;  271.667;  317.000;  319.000;-45.33333
1024.75;-1718.667;-1701.333;-1770.667;-17.33333
1025.06; -650.000; -718.667; -672.333;68.66667
1025.37;-1824.667;-1778.333;-1797.667;-46.33333
1025.68; -612.667; -518.000; -531.667;-94.66667
1026.00; -554.667; -377.667; -476.333;-177.00000
1026.31; 2110.333; 2204.333; 2207.667;-94.00000
1026.62; 2340.333; 2351.667; 2420.000;-11.33333
1026.93; 3452.000; 3457.667; 3658.667;-5.66667
1027.24;   76.333;  136.667;  225.333;-60.33333
1027.55;  827.667;  977.333; 1006.667;-149.66667
1027.86; -376.000; -242.333; -362.667;-133.66667
1028.17; 4205.333; 4284.000; 4255.667;-78.66667
1028.48; 4365.000; 4374.333; 4368.000;-9.33333
1028.79; 4832.667; 4919.333; 4925.333;-86.66667
1029.10; 1850.000; 1917.000; 1892.667;-67.00000
1029.41;  719.667;  789.333;  776.333;-69.66667
1029.72; -280.667; -216.333; -262.667;-64.33333
1030.03;  -46.000;   74.667;   -0.333;-120.66667
1030.34; -999.667; -881.000; -969.333;-118.66667
1030.65;-1212.667;-1148.667;-1176.667;-64.00000
1030.96; -734.667; -653.000; -679.667;-81.66667
1031.27;  -44.667;   23.667;   51.667;-68.33333
1031.58;  571.000;  560.333;  588.000;10.66667
1031.89;-1190.333;-1228.333;-1230.333;38.00000
1032.20; -983.667; -979.667;-1044.667;-4.00000
1032.51; -333.000; -275.000; -276.667;-58.00000
1032.82;  814.000;  881.333;  783.333;-67.33333
1033.13;  948.000; 1031.000;  952.333;-83.00000
1033.44;-1188.333;-1096.000;-1179.000;-92.33333
1033.75;-1531.000;-1486.333;-1402.667;-44.66667
1034.06;-2072.000;-2074.000;-1978.333; 2.00000
1034.37;   21.000;  -98.000;  111.667;119.00000
1034.68;  -42.667; -135.000;  -44.000;92.33333
1034.99;  166.667;   89.000;  202.667;77.66667
1035.30; 2108.000; 2181.333; 2036.667;-73.33333
1035.61; 2646.333; 2749.333; 2639.000;-103.00000
1035.92; 1908.000; 1980.000; 1781.667;-72.00000
1036.23; -316.333; -241.333; -341.333;-75.00000
1036.54; -571.333; -487.333; -634.000;-84.00000
1036.85;  744.333;  777.333;  696.667;-33.00000
1037.16;   40.667;   -2.000;  -49.667;42.66667
1037.47; 1125.667; 1131.333; 1123.000;-5.66667
1037.78;  398.667;  480.667;  436.000;-82.00000
1038.09; 1163.333; 1310.333; 1235.333;-147.00000
1038.40; -307.000; -197.333; -274.000;-109.66667
1038.71;   18.667;  172.333;  120.333;-153.66667
1039.02; -612.333; -498.333; -617.667;-114.00000
1039.33; -301.000; -178.333; -244.333;-122.66667
1039.64; -557.000; -486.667; -555.667;-70.33333
1039.95; -630.000; -505.000; -521.333;-125.00000
1040.26; -104.000;  -30.667;  -73.667;-73.33333
1040.57; 1336.667; 1419.333; 1399.000;-82.66667
1040.88;  494.000;  582.667;  520.667;-88.66667
1041.19;  931.667; 1057.000;  971.000;-125.33333
1041.50;-1310.333;-1183.667;-1276.000;-126.66667
1041.81; -439.667; -336.000; -296.667;-103.66667
1042.12;-2017.667;-1919.667;-1843.000;-98.00000
1042.43; -920.667; -860.000; -750.000;-60.66667
1042.74; -700.667; -638.667; -593.667;-62.00000
1043.05; -246.667; -149.667; -135.000;-97.00000
1043.36;  835.667; 1039.000;  935.667;-203.33333
1043.67;  758.000;  950.333;  890.000;-192.33333
1043.98;  193.000;  325.667;  294.333;-132.66667
1044.29; 1522.667; 1510.333; 1524.667;12.33333
1044.60;  673.000;  693.667;  630.000;-20.66667
1044.91; 2775.000; 2772.667; 2728.000; 2.33333
1045.22;  -95.333;    4.333;   -0.333;-99.66667
1045.53;  360.333;  393.333;  493.333;-33.00000
1045.84; -925.000; -847.667; -798.333;-77.33333
1046.15;  714.333;  772.667;  761.333;-58.33333
1046.46;  879.667;  935.333;  791.333;-55.66667
1046.77; 1207.333; 1222.333; 1106.000;-15.00000
1047.07; 1223.667; 1260.667; 1200.000;-37.00000
1047.38; 4569.333; 4607.000; 4698.333;-37.66667
1047.69; 3206.667; 3268.667; 3344.000;-62.00000
1048.00; 2290.000; 2357.333; 2421.667;-67.33333
1048.31;-1537.667;-1453.333;-1539.000;-84.33333
1048.62;   39.333;  101.000;   -3.667;-61.66667
1048.93; -411.333; -355.000; -546.000;-56.33333
1049.24; -275.333; -187.333; -371.000;-88.00000
1049.55;-1623.000;-1541.000;-1718.333;-82.00000
1049.86;-1518.000;-1470.333;-1549.667;-47.66667
1050.17; -607.667; -656.667; -649.667;49.00000
1050.48; -267.000; -234.667; -232.667;-32.33333
1050.79;  -11.000;   19.000;   22.667;-30.00000
1051.10; -414.000; -283.667; -350.667;-130.33333
1051.41; -671.667; -614.333; -664.667;-57.33333
1051.71;-1716.333;-1580.000;-1674.667;-136.33333
1052.02;-1258.000;-1170.333;-1245.667;-87.66667
1052.33; -793.667; -654.000; -760.333;-139.66667
1052.64; -871.333; -753.333; -867.667;-118.00000
1052.95; -834.667; -649.333; -780.667;-185.33333
1053.26;-1708.000;-1599.667;-1624.667;-108.33333
1053.57; -164.667;  -47.000;  -60.000;-117.66667
1053.88; -848.000; -787.000; -797.333;-61.00000
1054.19; -838.000; -770.667; -791.333;-67.33333
1054.50; -599.333; -563.333; -645.333;-36.00000
1054.81;  746.000;  815.000;  752.667;-69.00000
1055.12; 2661.667; 2701.333; 2658.000;-39.66667
1055.42; 2988.333; 3008.000; 3066.667;-19.66667
1055.73;  485.333;  480.667;  510.333; 4.66667
1056.04;  971.333; 1069.667;  955.000;-98.33333
1056.35;  345.000;  395.667;  295.333;-50.66667
1056.66; 1702.333; 1783.667; 1653.333;-81.33333
1056.97; -204.333; -167.000; -263.333;-37.33333
1057.28;  675.667;  786.667;  659.333;-111.00000
1057.59; 4023.000; 4210.333; 4075.667;-187.33333
1057.90; 4200.667; 4380.000; 4351.333;-179.33333
1058.20; 2925.333; 3088.667; 3024.000;-163.33333
1058.51; -213.000; -172.667;  -71.000;-40.33333
1058.82;   48.000;  193.000;  173.000;-145.00000
1059.13;  157.000;  254.667;  333.333;-97.66667
1059.44;  787.667;  953.000;  932.333;-165.33333
1059.75; 1015.667; 1104.667; 1204.000;-89.00000
1060.06;  373.667;  481.333;  515.000;-107.66667
1060.37;  -59.000;  -30.667;   37.333;-28.33333
1060.67;-1572.000;-1558.667;-1523.333;-13.33333
1060.98; -841.000; -851.333; -688.333;10.33333
1061.29;-1672.000;-1679.333;-1548.000; 7.33333
1061.60;-1241.000;-1268.333;-1101.000;27.33333
1061.91;-1715.000;-1779.000;-1700.000;64.00000
1062.22;-1576.667;-1686.333;-1525.667;109.66667
1062.53;-1421.333;-1470.000;-1411.667;48.66667
1062.84; -664.000; -644.000; -615.333;-20.00000
1063.14;-1910.000;-1824.667;-1880.000;-85.33333
1063.45;-1164.667;-1084.000;-1113.333;-80.66667
1063.76;-2451.667;-2379.667;-2415.667;-72.00000
1064.07; -207.667; -118.000; -127.000;-89.66667
1064.38; -762.667; -675.667; -733.000;-87.00000
1064.69; 1125.333; 1257.333; 1177.000;-132.00000
1065.00; 1193.000; 1350.333; 1198.000;-157.33333
1065.30; 2441.000; 2453.333; 2421.667;-12.33333
1065.61; 2953.333; 2951.333; 2901.000; 2.00000
1065.92; 2654.667; 2617.667; 2653.000;37.00000
1066.23; 1516.000; 1619.333; 1612.000;-103.33333
1066.54; -482.000; -431.333; -326.000;-50.66667
1066.85;-2121.333;-2063.000;-2026.333;-58.33333
1067.15;-1078.333;-1047.333;-1028.000;-31.00000
1067.46; -618.333; -543.667; -607.333;-74.66667
1067.77;  -89.000;  -66.333;  -75.000;-22.66667
1068.08; -754.333; -723.667; -678.667;-30.66667
1068.39;  592.667;  698.000;  756.000;-105.33333
1068.70; 3012.000; 3149.333; 3159.000;-137.33333
1069.00; 2707.000; 2868.667; 2773.333;-161.66667
1069.31;  793.000;  872.000;  784.667;-79.00000
1069.62;-1440.000;-1304.667;-1357.000;-135.33333
1069.93; 2205.333; 2198.000; 2340.333; 7.33333
1070.24; 2080.333; 2107.000; 2247.333;-26.66667
1070.55; 1843.667; 1851.333; 2008.333;-7.66667
1070.85;-1248.000;-1077.000;-1066.667;-171.00000
1071.16; -278.000; -190.000; -232.333;-88.00000
1071.47; -336.667; -299.333; -376.333;-37.33333
1071.78;-1860.000;-1895.333;-1984.333;35.33333
1072.09;-1886.667;-1880.667;-1884.333;-6.00000
1072.39;-2230.000;-2198.333;-2228.000;-31.66667
1072.70; 1256.667; 1281.000; 1230.667;-24.33333
1073.01;  433.000;  480.333;  347.000;-47.33333
1073.32; 1656.333; 1741.000; 1649.333;-84.66667
1073.63; -936.000; -771.000; -853.333;-165.00000
1073.94; -792.667; -643.000; -640.333;-149.66667
1074.24;-1806.333;-1657.333;-1706.667;-149.00000
1074.55; 2672.667; 2671.000; 2667.667; 1.66667
1074.86; 5768.667; 5718.667; 5662.667;50.00000
1075.17; 8358.000; 8281.333; 8297.667;76.66667
1075.48; 4240.333; 4287.333; 4232.000;-47.00000
1075.78;  935.000;  968.000;  986.333;-33.00000
1076.09;-1479.667;-1437.000;-1443.333;-42.66667
1076.40;-1779.667;-1799.667;-1729.000;20.00000
1076.71;-2288.333;-2217.667;-2269.000;-70.66667
1077.01;-2101.667;-2044.667;-2073.000;-57.00000
1077.32;-2127.667;-2018.333;-2048.000;-109.33333
1077.63; -532.333; -501.333; -426.667;-31.00000
1077.94; -143.667; -156.000;  -61.000;12.33333
1078.25;  460.667;  421.000;  527.667;39.66667
1078.55;  632.000;  589.333;  651.000;42.66667
1078.86; 1773.667; 1682.333; 1724.333;91.33333
1079.17; 2189.333; 2128.000; 2148.333;61.33333
1079.48; 2619.000; 2639.333; 2666.667;-20.33333
1079.78; 1275.000; 1377.333; 1366.000;-102.33333
1080.09; -482.667; -374.333; -365.000;-108.33333
1080.40;-2755.333;-2641.667;-2635.333;-113.66667
1080.71;-2556.667;-2493.000;-2395.667;-63.66667
1081.02;-2262.000;-2170.667;-2087.333;-91.33333
1081.32;  152.333;  209.000;  338.667;-56.66667
1081.63; -497.333; -430.667; -433.000;-66.66667
1081.94; 3482.667; 3442.333; 3454.000;40.33333
1082.25; 3023.000; 3035.333; 2923.000;-12.33333
1082.55; 3493.333; 3517.000; 3529.333;-23.66667
1082.86;  192.333;  290.000;  243.000;-97.66667
1083.17;  597.667;  613.333;  615.333;-15.66667
1083.48; 2582.667; 2684.000; 2503.333;-101.33333
1083.78; 6434.333; 6505.333; 6322.000;-71.00000
1084.09; 5430.000; 5503.667; 5344.333;-73.66667
1084.40; 3811.000; 3792.000; 3772.000;19.00000
1084.71; -672.000; -666.333; -678.000;-5.66667
1085.01;  -73.333;   -9.667;  -27.333;-63.66667
1085.32; 1360.333; 1485.000; 1384.333;-124.66667
1085.63; 2928.333; 2980.000; 2889.667;-51.66667
1085.94; 2511.333; 2560.000; 2470.667;-48.66667
1086.24;  926.000;  919.667;  956.667; 6.33333
1086.55;-1038.000;-1001.333; -966.333;-36.66667
1086.86;-1336.333;-1362.000;-1281.667;25.66667
1087.16;-1065.000; -991.333;-1020.000;-73.66667
1087.47; -614.667; -560.667; -568.000;-54.00000
1087.78;-1748.667;-1620.667;-1654.333;-128.00000
1088.09;-2036.667;-1997.667;-1937.000;-39.00000
1088.39;-1220.000;-1106.000;-1122.000;-114.00000
1088.70;  254.333;  369.333;  374.333;-115.00000
1089.01; -752.000; -620.667; -659.667;-131.33333
1089.32; -730.333; -668.000; -541.333;-62.33333
1089.62;-2210.333;-2144.667;-2061.667;-65.66667
1089.93;-1995.667;-1888.333;-1799.333;-107.33333
1090.24;-1712.000;-1685.333;-1638.000;-26.66667
1090.54; -160.333; -145.000;  -78.000;-15.33333
1090.85;  777.667;  787.333;  786.333;-9.66667
1091.16;   -0.667;   66.333;   25.000;-67.00000
1091.47;-1054.333; -970.000;-1091.333;-84.33333
1091.77;-1406.333;-1357.000;-1376.000;-49.33333
1092.08;-1292.667;-1206.667;-1284.333;-86.00000
1092.39;  314.000;  330.000;  389.333;-16.00000
1092.69;  488.000;  497.333;  548.667;-9.33333
1093.00; 1294.000; 1292.333; 1413.333; 1.66667
1093.31;  505.000;  522.333;  560.667;-17.33333
1093.61;  664.000;  661.667;  737.333; 2.33333
1093.92;  158.333;  201.333;  216.000;-43.00000
1094.23; -652.333; -591.667; -522.667;-60.66667
1094.54; -575.000; -355.000; -414.667;-220.00000
1094.84;  166.667;  386.667;  430.667;-220.00000
1095.15;  637.333;  874.333;  924.667;-237.00000
1095.46; 1596.667; 1672.333; 1787.667;-75.66667
1095.76;  500.000;  579.333;  603.333;-79.33333
1096.07; -400.667; -345.000; -359.667;-55.66667
1096.38;-2150.667;-2053.000;-2082.000;-97.66667
1096.68;-1329.333;-1202.000;-1220.667;-127.33333
1096.99;  331.000;  399.667;  376.667;-68.66667
1097.30;  246.333;  253.333;  266.667;-7.00000
1097.60;  -56.667;  -80.667;  -61.000;24.00000
1097.91; -183.667; -194.667;  -69.333;11.00000
1098.22;  260.000;  248.000;  311.333;12.00000
1098.52; -679.667; -720.000; -646.667;40.33333
1098.83;-1765.333;-1798.667;-1857.333;33.33333
1099.14;-1944.667;-1893.667;-1909.667;-51.00000
1099.44; -754.333; -720.000; -705.333;-34.33333
1099.75; -401.667; -381.333; -332.000;-20.33333
1100.06; -724.000; -802.000; -812.000;78.00000